   Wavelength    Flux
   3540.500      0.6847045    
   3541.400      0.6646169    
   3542.300      0.6973528    
   3543.200      0.7500026    
   3544.100      0.7420863    
   3545.000      0.7135093    
   3545.900      0.7296113    
   3546.800      0.7429335    
   3547.700      0.7454723    
   3548.600      0.7563635    
   3549.500      0.7796294    
   3550.400      0.7697110    
   3551.300      0.7453805    
   3552.200      0.7519146    
   3553.100      0.7484774    
   3554.000      0.6995347    
   3554.900      0.6744540    
   3555.800      0.7147887    
   3556.700      0.7492524    
   3557.600      0.7445787    
   3558.500      0.7252234    
   3559.400      0.7244534    
   3560.300      0.7360154    
   3561.200      0.7437495    
   3562.100      0.7708424    
   3563.000      0.7848040    
   3563.900      0.7126449    
   3564.800      0.6108816    
   3565.700      0.5624041    
   3566.600      0.5778715    
   3567.500      0.6089072    
   3568.400      0.5944830    
   3569.300      0.5384343    
   3570.200      0.5236052    
   3571.100      0.5498937    
   3572.000      0.5843012    
   3572.900      0.6223124    
   3573.800      0.6218141    
   3574.700      0.6110894    
   3575.600      0.6209494    
   3576.500      0.6670363    
   3577.400      0.6890122    
   3578.300      0.6535892    
   3579.200      0.6051576    
   3580.100      0.5437809    
   3581.000      0.5058680    
   3581.900      0.5449503    
   3582.800      0.6274936    
   3583.700      0.6401809    
   3584.600      0.5763407    
   3585.500      0.5220429    
   3586.400      0.5107557    
   3587.300      0.5697889    
   3588.200      0.6198758    
   3589.100      0.6399161    
   3590.000      0.7224303    
   3590.900      0.7873411    
   3591.800      0.7818947    
   3592.700      0.7353861    
   3593.600      0.7033609    
   3594.500      0.7326624    
   3595.400      0.7638857    
   3596.300      0.7655204    
   3597.200      0.7641282    
   3598.100      0.7600895    
   3599.000      0.7927232    
   3599.900      0.8412638    
   3600.800      0.8418812    
   3601.700      0.7440656    
   3602.600      0.6696451    
   3603.500      0.6553396    
   3604.400      0.6448657    
   3605.300      0.6343898    
   3606.200      0.6414547    
   3607.100      0.6437411    
   3608.000      0.5919585    
   3608.900      0.5514940    
   3609.800      0.5773617    
   3610.700      0.6538281    
   3611.600      0.6930153    
   3612.500      0.6355472    
   3613.400      0.5770379    
   3614.300      0.6017863    
   3615.200      0.6745852    
   3616.100      0.7038378    
   3617.000      0.6389317    
   3617.900      0.5180935    
   3618.800      0.4724596    
   3619.700      0.5413724    
   3620.600      0.6018693    
   3621.500      0.6294518    
   3622.400      0.6781284    
   3623.300      0.6983845    
   3624.200      0.6939360    
   3625.100      0.7612780    
   3626.000      0.8354950    
   3626.900      0.8598574    
   3627.800      0.8546310    
   3628.700      0.8153167    
   3629.600      0.7178407    
   3630.500      0.5933273    
   3631.400      0.5351526    
   3632.300      0.5851103    
   3633.200      0.6403204    
   3634.100      0.6445674    
   3635.000      0.6508432    
   3635.900      0.6443427    
   3636.800      0.6759794    
   3637.700      0.7452673    
   3638.600      0.7558040    
   3639.500      0.7556671    
   3640.400      0.7480158    
   3641.300      0.7317955    
   3642.200      0.7166798    
   3643.100      0.6740224    
   3644.000      0.6349505    
   3644.900      0.6234730    
   3645.800      0.6367705    
   3646.700      0.6281180    
   3647.600      0.6182486    
   3648.500      0.6401988    
   3649.400      0.6719132    
   3650.300      0.6839054    
   3651.200      0.7054020    
   3652.100      0.7417385    
   3653.000      0.7671490    
   3653.900      0.7678631    
   3654.800      0.7599340    
   3655.700      0.7538931    
   3656.600      0.7943804    
   3657.500      0.8321432    
   3658.400      0.8442835    
   3659.300      0.8295791    
   3660.200      0.8091713    
   3661.100      0.7877590    
   3662.000      0.7331657    
   3662.900      0.7298816    
   3663.800      0.7423277    
   3664.700      0.7695868    
   3665.600      0.7597916    
   3666.500      0.7517586    
   3667.400      0.7573842    
   3668.300      0.7548829    
   3669.200      0.7047926    
   3670.100      0.7099071    
   3671.000      0.7534782    
   3671.900      0.7999962    
   3672.800      0.8001395    
   3673.700      0.7743700    
   3674.600      0.7696639    
   3675.500      0.7882235    
   3676.400      0.7594666    
   3677.300      0.6859180    
   3678.200      0.6922449    
   3679.100      0.6949548    
   3680.000      0.6733390    
   3680.900      0.6880428    
   3681.800      0.7350374    
   3682.700      0.7352905    
   3683.600      0.7198410    
   3684.500      0.7208911    
   3685.400      0.6980363    
   3686.300      0.6651528    
   3687.200      0.6576530    
   3688.100      0.6606529    
   3689.000      0.6967459    
   3689.900      0.7526928    
   3690.800      0.7980150    
   3691.700      0.8131000    
   3692.600      0.7998186    
   3693.500      0.7702950    
   3694.400      0.7739829    
   3695.300      0.8041638    
   3696.200      0.8076285    
   3697.100      0.8031748    
   3698.000      0.8311071    
   3698.900      0.8751862    
   3699.800      0.8873203    
   3700.700      0.8542225    
   3701.600      0.8233044    
   3702.500      0.7905372    
   3703.400      0.7142101    
   3704.300      0.6339363    
   3705.200      0.5968449    
   3706.100      0.6107109    
   3707.000      0.6349558    
   3707.900      0.6559750    
   3708.800      0.6850962    
   3709.700      0.7191944    
   3710.600      0.7620044    
   3711.500      0.7985879    
   3712.400      0.8146588    
   3713.300      0.8699589    
   3714.200      0.9154459    
   3715.100      0.9055000    
   3716.000      0.8858043    
   3716.900      0.8709684    
   3717.800      0.8092337    
   3718.700      0.6980794    
   3719.600      0.5749019    
   3720.500      0.5148067    
   3721.400      0.5365707    
   3722.300      0.5875664    
   3723.200      0.6725163    
   3724.100      0.7686328    
   3725.000      0.8325866    
   3725.900      0.8189201    
   3726.800      0.7656847    
   3727.700      0.7538904    
   3728.600      0.7853847    
   3729.500      0.7851458    
   3730.400      0.7603627    
   3731.300      0.7556005    
   3732.200      0.6906808    
   3733.100      0.5700853    
   3734.000      0.4737605    
   3734.900      0.4535147    
   3735.800      0.4832861    
   3736.700      0.5232077    
   3737.600      0.6126202    
   3738.500      0.7220138    
   3739.400      0.7823944    
   3740.300      0.8290810    
   3741.200      0.8268660    
   3742.100      0.7773299    
   3743.000      0.7200698    
   3743.900      0.6719565    
   3744.800      0.6250790    
   3745.700      0.5994090    
   3746.600      0.5964662    
   3747.500      0.5823599    
   3748.400      0.5012779    
   3749.300      0.4444739    
   3750.200      0.5151572    
   3751.100      0.6401687    
   3752.000      0.7111693    
   3752.900      0.7518036    
   3753.800      0.8362871    
   3754.700      0.9014264    
   3755.600      0.9167525    
   3756.500      0.8428109    
   3757.400      0.7143841    
   3758.300      0.6402448    
   3759.200      0.6621810    
   3760.100      0.7172193    
   3761.000      0.7589298    
   3761.900      0.7779199    
   3762.800      0.7673199    
   3763.700      0.7803398    
   3764.600      0.8219501    
   3765.500      0.8171725    
   3766.400      0.7689903    
   3767.300      0.7502149    
   3768.200      0.7568688    
   3769.100      0.7255466    
   3770.000      0.6764132    
   3770.900      0.7130615    
   3771.800      0.8146957    
   3772.700      0.8712685    
   3773.600      0.8744931    
   3774.500      0.8654769    
   3775.400      0.8643125    
   3776.300      0.8821537    
   3777.200      0.9051087    
   3778.100      0.9090251    
   3779.000      0.9260813    
   3779.900      0.9482503    
   3780.800      0.9727695    
   3781.700      0.9676943    
   3782.600      0.9720797    
   3783.500      0.9962777    
   3784.400      0.9856941    
   3785.300      0.8980862    
   3786.200      0.8166684    
   3787.100      0.7952902    
   3788.000      0.8082000    
   3788.900      0.8033040    
   3789.800      0.7922095    
   3790.700      0.8225201    
   3791.600      0.8422129    
   3792.500      0.8071297    
   3793.400      0.7478456    
   3794.300      0.7046156    
   3795.200      0.7085711    
   3796.100      0.6881201    
   3797.000      0.6207765    
   3797.900      0.5708333    
   3798.800      0.6090533    
   3799.700      0.7058665    
   3800.600      0.8027605    
   3801.500      0.8393106    
   3802.400      0.8978800    
   3803.300      0.9483682    
   3804.200      0.9581767    
   3805.100      0.9255516    
   3806.000      0.8808351    
   3806.900      0.8491391    
   3807.800      0.8613858    
   3808.700      0.9304391    
   3809.600      0.9723432    
   3810.500      0.9831713    
   3811.400      0.9639773    
   3812.300      0.8792968    
   3813.200      0.8002595    
   3814.100      0.7428279    
   3815.000      0.7049623    
   3815.900      0.7113635    
   3816.800      0.7800500    
   3817.700      0.8499398    
   3818.600      0.8354615    
   3819.500      0.7171831    
   3820.400      0.6445958    
   3821.300      0.7103264    
   3822.200      0.8092700    
   3823.100      0.8094244    
   3824.000      0.7250518    
   3824.900      0.6353476    
   3825.800      0.5939970    
   3826.700      0.5930578    
   3827.600      0.5918607    
   3828.500      0.5829211    
   3829.400      0.5901073    
   3830.300      0.5984827    
   3831.200      0.5586663    
   3832.100      0.4941245    
   3833.000      0.4651655    
   3833.900      0.4726099    
   3834.800      0.4911316    
   3835.700      0.5188949    
   3836.600      0.5208003    
   3837.500      0.4823297    
   3838.400      0.4684605    
   3839.300      0.5054217    
   3840.200      0.5639085    
   3841.100      0.6540632    
   3842.000      0.7600480    
   3842.900      0.8271370    
   3843.800      0.8375695    
   3844.700      0.8438576    
   3845.600      0.8818414    
   3846.500      0.9134594    
   3847.400      0.9304572    
   3848.300      0.9178229    
   3849.200      0.8703626    
   3850.100      0.8414080    
   3851.000      0.8801520    
   3851.900      0.9308643    
   3852.800      0.9480265    
   3853.700      0.9241788    
   3854.600      0.8834960    
   3855.500      0.8582822    
   3856.400      0.8599092    
   3857.300      0.8555955    
   3858.200      0.7846135    
   3859.100      0.6864747    
   3860.000      0.6925972    
   3860.900      0.7733188    
   3861.800      0.8730615    
   3862.700      0.9528350    
   3863.600      0.9775087    
   3864.500      0.9465062    
   3865.400      0.9288243    
   3866.300      0.9323457    
   3867.200      0.9471663    
   3868.100      0.9510190    
   3869.000      0.9280757    
   3869.900      0.8811929    
   3870.800      0.8071225    
   3871.700      0.7295644    
   3872.600      0.7007246    
   3873.500      0.7707559    
   3874.400      0.8657668    
   3875.300      0.9028661    
   3876.200      0.8792275    
   3877.100      0.8140162    
   3878.000      0.7531222    
   3878.900      0.7661970    
   3879.800      0.8227168    
   3880.700      0.8579093    
   3881.600      0.8285471    
   3882.500      0.7827755    
   3883.400      0.7728830    
   3884.300      0.7701548    
   3885.200      0.7317471    
   3886.100      0.6710721    
   3887.000      0.6342322    
   3887.900      0.5985579    
   3888.800      0.5736963    
   3889.700      0.6166209    
   3890.600      0.7090411    
   3891.500      0.7903889    
   3892.400      0.8186736    
   3893.300      0.8216652    
   3894.200      0.8059694    
   3895.100      0.7944183    
   3896.000      0.8358076    
   3896.900      0.8786920    
   3897.800      0.8737382    
   3898.700      0.8496589    
   3899.600      0.8577570    
   3900.500      0.8899371    
   3901.400      0.8912595    
   3902.300      0.8543065    
   3903.200      0.8177148    
   3904.100      0.7883508    
   3905.000      0.7508335    
   3905.900      0.7531756    
   3906.800      0.8301523    
   3907.700      0.9096223    
   3908.600      0.9350461    
   3909.500      0.9336741    
   3910.400      0.9472938    
   3911.300      0.9834129    
   3912.200       1.002172    
   3913.100      0.9750613    
   3914.000      0.9499317    
   3914.900      0.9576623    
   3915.800      0.9445943    
   3916.700      0.9260670    
   3917.600      0.9194207    
   3918.500      0.9083952    
   3919.400      0.8578208    
   3920.300      0.7929862    
   3921.200      0.7763585    
   3922.100      0.8043622    
   3923.000      0.8419128    
   3923.900      0.8575752    
   3924.800      0.8247670    
   3925.700      0.7570770    
   3926.600      0.6851897    
   3927.500      0.5942069    
   3928.400      0.5029237    
   3929.300      0.4264943    
   3930.200      0.3651922    
   3931.100      0.3119755    
   3932.000      0.2476686    
   3932.900      0.1904528    
   3933.800      0.1789635    
   3934.700      0.2124475    
   3935.600      0.2702225    
   3936.500      0.3477577    
   3937.400      0.4344459    
   3938.300      0.5232515    
   3939.200      0.6169540    
   3940.100      0.6833851    
   3941.000      0.7137920    
   3941.900      0.7253818    
   3942.800      0.7132161    
   3943.700      0.6970376    
   3944.600      0.7406135    
   3945.500      0.8325857    
   3946.400      0.8863707    
   3947.300      0.8668625    
   3948.200      0.8493538    
   3949.100      0.8841220    
   3950.000      0.9334366    
   3950.900      0.9451571    
   3951.800      0.9113579    
   3952.700      0.8877141    
   3953.600      0.9170374    
   3954.500      0.9527509    
   3955.400      0.9343942    
   3956.300      0.8802613    
   3957.200      0.8703929    
   3958.100      0.9127859    
   3959.000      0.9319015    
   3959.900      0.8776481    
   3960.800      0.7562959    
   3961.700      0.6522132    
   3962.600      0.6192169    
   3963.500      0.6117471    
   3964.400      0.5660210    
   3965.300      0.4779305    
   3966.200      0.3772331    
   3967.100      0.2771497    
   3968.000      0.2083610    
   3968.900      0.2058602    
   3969.800      0.2662874    
   3970.700      0.3545952    
   3971.600      0.4466029    
   3972.500      0.5324576    
   3973.400      0.6098018    
   3974.300      0.6814960    
   3975.200      0.7438900    
   3976.100      0.7897936    
   3977.000      0.8286350    
   3977.900      0.8833903    
   3978.800      0.9364184    
   3979.700      0.9697747    
   3980.600      0.9741349    
   3981.500      0.9424547    
   3982.400      0.9220322    
   3983.300      0.9482911    
   3984.200      0.9741730    
   3985.100      0.9749188    
   3986.000      0.9704517    
   3986.900      0.9747890    
   3987.800      0.9925556    
   3988.700       1.006751    
   3989.600       1.017455    
   3990.500       1.035976    
   3991.400       1.044700    
   3992.300       1.059114    
   3993.200       1.073666    
   3994.100       1.051585    
   3995.000       1.011807    
   3995.900      0.9801697    
   3996.800      0.9541886    
   3997.700      0.9463707    
   3998.600      0.9803280    
   3999.500       1.033736    
   4000.400       1.054807    
   4001.300       1.055064    
   4002.200       1.072457    
   4003.100       1.085061    
   4004.000       1.037784    
   4004.900      0.9457895    
   4005.800      0.9138980    
   4006.700      0.9595982    
   4007.600       1.027731    
   4008.500       1.067854    
   4009.400       1.079375    
   4010.300       1.081587    
   4011.200       1.092193    
   4012.100       1.088531    
   4013.000       1.081266    
   4013.900       1.074990    
   4014.800       1.081838    
   4015.700       1.076225    
   4016.600       1.042400    
   4017.500       1.020784    
   4018.400       1.054597    
   4019.300       1.093278    
   4020.200       1.080938    
   4021.100       1.066929    
   4022.000       1.084034    
   4022.900       1.096948    
   4023.800       1.081511    
   4024.700       1.071951    
   4025.600       1.093967    
   4026.500       1.112111    
   4027.400       1.131567    
   4028.300       1.140836    
   4029.200       1.088291    
   4030.100       1.013739    
   4031.000      0.9787661    
   4031.900      0.9775001    
   4032.800      0.9754575    
   4033.700      0.9770073    
   4034.600       1.006126    
   4035.500       1.063181    
   4036.400       1.121450    
   4037.300       1.152585    
   4038.200       1.154575    
   4039.100       1.134224    
   4040.000       1.104112    
   4040.900       1.091228    
   4041.800       1.115718    
   4042.700       1.129352    
   4043.600       1.056340    
   4044.500      0.9291787    
   4045.400      0.8450198    
   4046.300      0.8893107    
   4047.200       1.009924    
   4048.100       1.078470    
   4049.000       1.095822    
   4049.900       1.129674    
   4050.800       1.148886    
   4051.700       1.113830    
   4052.600       1.078285    
   4053.500       1.062715    
   4054.400       1.050158    
   4055.300       1.045658    
   4056.200       1.036000    
   4057.100       1.010854    
   4058.000       1.002206    
   4058.900       1.038995    
   4059.800       1.092458    
   4060.700       1.122182    
   4061.600       1.088920    
   4062.500      0.9930936    
   4063.400      0.9274985    
   4064.300      0.9605330    
   4065.200       1.019945    
   4066.100       1.036300    
   4067.000       1.044825    
   4067.900       1.078849    
   4068.800       1.123530    
   4069.700       1.116908    
   4070.600       1.034865    
   4071.500      0.9694492    
   4072.400       1.005675    
   4073.300       1.074422    
   4074.200       1.094069    
   4075.100       1.057331    
   4076.000       1.004069    
   4076.900      0.9526052    
   4077.800      0.9378086    
   4078.700      0.9679270    
   4079.600       1.008208    
   4080.500       1.046315    
   4081.400       1.069757    
   4082.300       1.059022    
   4083.200       1.031055    
   4084.100       1.013686    
   4085.000       1.036039    
   4085.900       1.071423    
   4086.800       1.106443    
   4087.700       1.152148    
   4088.600       1.183170    
   4089.500       1.169576    
   4090.400       1.139992    
   4091.300       1.116842    
   4092.200       1.104819    
   4093.100       1.118373    
   4094.000       1.112961    
   4094.900       1.075227    
   4095.800       1.036911    
   4096.700       1.024979    
   4097.600       1.008462    
   4098.500      0.9695662    
   4099.400      0.9075323    
   4100.300      0.7954009    
   4101.200      0.6860836    
   4102.100      0.6938158    
   4103.000      0.7979037    
   4103.900      0.9028923    
   4104.800      0.9738022    
   4105.700       1.017727    
   4106.600       1.048192    
   4107.500       1.060295    
   4108.400       1.069773    
   4109.300       1.070419    
   4110.200       1.063125    
   4111.100       1.067870    
   4112.000       1.085535    
   4112.900       1.102933    
   4113.800       1.119063    
   4114.700       1.129963    
   4115.600       1.146368    
   4116.500       1.155345    
   4117.400       1.136407    
   4118.300       1.094121    
   4119.200       1.080915    
   4120.100       1.091277    
   4121.000       1.095280    
   4121.900       1.100042    
   4122.800       1.112982    
   4123.700       1.126408    
   4124.600       1.132879    
   4125.500       1.124785    
   4126.400       1.099387    
   4127.300       1.076044    
   4128.200       1.070354    
   4129.100       1.086287    
   4130.000       1.096748    
   4130.900       1.071874    
   4131.800       1.035823    
   4132.700       1.025397    
   4133.600       1.028069    
   4134.500       1.053128    
   4135.400       1.106013    
   4136.300       1.147865    
   4137.200       1.164775    
   4138.100       1.176022    
   4139.000       1.188908    
   4139.900       1.188221    
   4140.800       1.162961    
   4141.700       1.105892    
   4142.600       1.031329    
   4143.500       1.002432    
   4144.400       1.059173    
   4145.300       1.132384    
   4146.200       1.165650    
   4147.100       1.168484    
   4148.000       1.151934    
   4148.900       1.121400    
   4149.800       1.112382    
   4150.700       1.125435    
   4151.600       1.122459    
   4152.500       1.097679    
   4153.400       1.055767    
   4154.300       1.041126    
   4155.200       1.062531    
   4156.100       1.062960    
   4157.000       1.060840    
   4157.900       1.084740    
   4158.800       1.118126    
   4159.700       1.140203    
   4160.600       1.140428    
   4161.500       1.139151    
   4162.400       1.150365    
   4163.300       1.156542    
   4164.200       1.151032    
   4165.100       1.149996    
   4166.000       1.135744    
   4166.900       1.092096    
   4167.800       1.076193    
   4168.700       1.102751    
   4169.600       1.119029    
   4170.500       1.079269    
   4171.400       1.015644    
   4172.300      0.9621832    
   4173.200      0.9670408    
   4174.100       1.017481    
   4175.000       1.062320    
   4175.900       1.072835    
   4176.800       1.055850    
   4177.700       1.043524    
   4178.600       1.063033    
   4179.500       1.096140    
   4180.400       1.103585    
   4181.300       1.077451    
   4182.200       1.054145    
   4183.100       1.055204    
   4184.000       1.082425    
   4184.900       1.105064    
   4185.800       1.084124    
   4186.700       1.020058    
   4187.600      0.9924989    
   4188.500       1.034012    
   4189.400       1.097832    
   4190.300       1.119338    
   4191.200       1.102933    
   4192.100       1.112728    
   4193.000       1.145152    
   4193.900       1.143331    
   4194.800       1.095381    
   4195.700       1.062056    
   4196.600       1.057111    
   4197.500       1.033896    
   4198.400       1.001600    
   4199.300       1.017031    
   4200.200       1.041398    
   4201.100       1.028439    
   4202.000       1.017637    
   4202.900       1.039373    
   4203.800       1.059901    
   4204.700       1.065418    
   4205.600       1.074914    
   4206.500       1.098603    
   4207.400       1.127792    
   4208.300       1.138604    
   4209.200       1.125838    
   4210.100       1.107960    
   4211.000       1.115546    
   4211.900       1.137434    
   4212.800       1.145378    
   4213.700       1.129304    
   4214.600       1.081440    
   4215.500       1.035855    
   4216.400       1.041575    
   4217.300       1.068776    
   4218.200       1.087601    
   4219.100       1.106537    
   4220.000       1.129783    
   4220.900       1.143110    
   4221.800       1.123585    
   4222.700       1.077569    
   4223.600       1.025094    
   4224.500      0.9625603    
   4225.400      0.8651003    
   4226.300      0.7756269    
   4227.200      0.8150272    
   4228.100      0.9705206    
   4229.000       1.088745    
   4229.900       1.128342    
   4230.800       1.138455    
   4231.700       1.116537    
   4232.600       1.072947    
   4233.500       1.060433    
   4234.400       1.058316    
   4235.300       1.013377    
   4236.200      0.9723377    
   4237.100      0.9875055    
   4238.000       1.017715    
   4238.900       1.029295    
   4239.800       1.051911    
   4240.700       1.083484    
   4241.600       1.071212    
   4242.500       1.046030    
   4243.400       1.066342    
   4244.300       1.098389    
   4245.200       1.093432    
   4246.100       1.056130    
   4247.000       1.004622    
   4247.900      0.9745462    
   4248.800      0.9678666    
   4249.700      0.9678285    
   4250.600      0.9949530    
   4251.500       1.053953    
   4252.400       1.085771    
   4253.300       1.056251    
   4254.200       1.006064    
   4255.100       1.003679    
   4256.000       1.057185    
   4256.900       1.098141    
   4257.800       1.074950    
   4258.700       1.010945    
   4259.600      0.9472897    
   4260.500      0.9253492    
   4261.400      0.9756617    
   4262.300       1.047188    
   4263.200       1.085170    
   4264.100       1.101599    
   4265.000       1.124400    
   4265.900       1.121239    
   4266.800       1.081831    
   4267.700       1.055525    
   4268.600       1.044123    
   4269.500       1.013874    
   4270.400      0.9412163    
   4271.300      0.8806778    
   4272.200      0.9054551    
   4273.100      0.9453369    
   4274.000      0.9402163    
   4274.900      0.9497547    
   4275.800       1.005810    
   4276.700       1.065020    
   4277.600       1.099772    
   4278.500       1.079410    
   4279.400       1.014760    
   4280.300      0.9838669    
   4281.200       1.006737    
   4282.100       1.024874    
   4283.000       1.044743    
   4283.900       1.046782    
   4284.800       1.003081    
   4285.700      0.9547390    
   4286.600      0.9486570    
   4287.500      0.9580635    
   4288.400      0.9288386    
   4289.300      0.8744910    
   4290.200      0.8702902    
   4291.100      0.9232727    
   4292.000      0.9879767    
   4292.900       1.015050    
   4293.800      0.9930134    
   4294.700      0.9684605    
   4295.600      0.9513820    
   4296.500      0.9167361    
   4297.400      0.8695611    
   4298.300      0.8060701    
   4299.200      0.7312869    
   4300.100      0.7084768    
   4301.000      0.7316865    
   4301.900      0.7422784    
   4302.800      0.7419140    
   4303.700      0.7672592    
   4304.600      0.7958447    
   4305.500      0.8038989    
   4306.400      0.7823437    
   4307.300      0.7240474    
   4308.200      0.6811830    
   4309.100      0.6845276    
   4310.000      0.7065708    
   4310.900      0.7387766    
   4311.800      0.7885333    
   4312.700      0.8447090    
   4313.600      0.9004455    
   4314.500      0.9729384    
   4315.400       1.067940    
   4316.300       1.147508    
   4317.200       1.180253    
   4318.100       1.180999    
   4319.000       1.169612    
   4319.900       1.146186    
   4320.800       1.121444    
   4321.700       1.088249    
   4322.600       1.009459    
   4323.500      0.9074525    
   4324.400      0.8415579    
   4325.300      0.8359101    
   4326.200      0.8995938    
   4327.100       1.007914    
   4328.000       1.090979    
   4328.900       1.114505    
   4329.800       1.104734    
   4330.700       1.096562    
   4331.600       1.108094    
   4332.500       1.122687    
   4333.400       1.118338    
   4334.300       1.105645    
   4335.200       1.084216    
   4336.100       1.038268    
   4337.000      0.9628814    
   4337.900      0.8732019    
   4338.800      0.7738020    
   4339.700      0.6845308    
   4340.600      0.6782861    
   4341.500      0.7727172    
   4342.400      0.8840588    
   4343.300      0.9488081    
   4344.200      0.9935913    
   4345.100       1.043512    
   4346.000       1.070823    
   4346.900       1.078419    
   4347.800       1.099330    
   4348.700       1.130574    
   4349.600       1.122510    
   4350.500       1.039011    
   4351.400      0.9405413    
   4352.300      0.9274471    
   4353.200       1.002303    
   4354.100       1.057681    
   4355.000       1.059381    
   4355.900       1.071596    
   4356.800       1.108589    
   4357.700       1.111264    
   4358.600       1.072665    
   4359.500       1.056889    
   4360.400       1.096101    
   4361.300       1.134215    
   4362.200       1.133487    
   4363.100       1.125074    
   4364.000       1.141313    
   4364.900       1.159794    
   4365.800       1.142474    
   4366.700       1.097402    
   4367.600       1.085499    
   4368.500       1.098518    
   4369.400       1.096484    
   4370.300       1.083737    
   4371.200       1.085581    
   4372.100       1.089477    
   4373.000       1.067653    
   4373.900       1.017149    
   4374.800      0.9889792    
   4375.700       1.020747    
   4376.600       1.076226    
   4377.500       1.109367    
   4378.400       1.119738    
   4379.300       1.111570    
   4380.200       1.105896    
   4381.100       1.097927    
   4382.000       1.017717    
   4382.900      0.8755877    
   4383.800      0.8143607    
   4384.700      0.8792356    
   4385.600      0.9796375    
   4386.500       1.039867    
   4387.400       1.061754    
   4388.300       1.057879    
   4389.200       1.044805    
   4390.100       1.030982    
   4391.000       1.029256    
   4391.900       1.060259    
   4392.800       1.079371    
   4393.700       1.052267    
   4394.600       1.021395    
   4395.500       1.040170    
   4396.400       1.093570    
   4397.300       1.124851    
   4398.200       1.116223    
   4399.100       1.085695    
   4400.000       1.037150    
   4400.900       1.025891    
   4401.800       1.066200    
   4402.700       1.084031    
   4403.600       1.024652    
   4404.500      0.9632691    
   4405.400      0.9947777    
   4406.300       1.057461    
   4407.200       1.064670    
   4408.100       1.046121    
   4409.000       1.070363    
   4409.900       1.122731    
   4410.800       1.160145    
   4411.700       1.176135    
   4412.600       1.178990    
   4413.500       1.142666    
   4414.400       1.070226    
   4415.300       1.030086    
   4416.200       1.052274    
   4417.100       1.085511    
   4418.000       1.117403    
   4418.900       1.159990    
   4419.800       1.184415    
   4420.700       1.167032    
   4421.600       1.126543    
   4422.500       1.106843    
   4423.400       1.123770    
   4424.300       1.134722    
   4425.200       1.124995    
   4426.100       1.119142    
   4427.000       1.121909    
   4427.900       1.149588    
   4428.800       1.170042    
   4429.700       1.146526    
   4430.600       1.122991    
   4431.500       1.132021    
   4432.400       1.140814    
   4433.300       1.109466    
   4434.200       1.057333    
   4435.100       1.029900    
   4436.000       1.062129    
   4436.900       1.130520    
   4437.800       1.181502    
   4438.700       1.193445    
   4439.600       1.176037    
   4440.500       1.143271    
   4441.400       1.098446    
   4442.300       1.055793    
   4443.200       1.048527    
   4444.100       1.088161    
   4445.000       1.139381    
   4445.900       1.155311    
   4446.800       1.135725    
   4447.700       1.122726    
   4448.600       1.132902    
   4449.500       1.132735    
   4450.400       1.123396    
   4451.300       1.132097    
   4452.200       1.141112    
   4453.100       1.108742    
   4454.000       1.044636    
   4454.900       1.001752    
   4455.800       1.012534    
   4456.700       1.049286    
   4457.600       1.067174    
   4458.500       1.065813    
   4459.400       1.069295    
   4460.300       1.069110    
   4461.200       1.061241    
   4462.100       1.070044    
   4463.000       1.098398    
   4463.900       1.114645    
   4464.800       1.112115    
   4465.700       1.109612    
   4466.600       1.110791    
   4467.500       1.102803    
   4468.400       1.080133    
   4469.300       1.064860    
   4470.200       1.074535    
   4471.100       1.106052    
   4472.000       1.136952    
   4472.900       1.156439    
   4473.800       1.165646    
   4474.700       1.160866    
   4475.600       1.147539    
   4476.500       1.151938    
   4477.400       1.169232    
   4478.300       1.168184    
   4479.200       1.137290    
   4480.100       1.084315    
   4481.000       1.037394    
   4481.900       1.035481    
   4482.800       1.075368    
   4483.700       1.121410    
   4484.600       1.147702    
   4485.500       1.163384    
   4486.400       1.169963    
   4487.300       1.154460    
   4488.200       1.114481    
   4489.100       1.081455    
   4490.000       1.082854    
   4490.900       1.118988    
   4491.800       1.158111    
   4492.700       1.170959    
   4493.600       1.146542    
   4494.500       1.113966    
   4495.400       1.106913    
   4496.300       1.123592    
   4497.200       1.146629    
   4498.100       1.166561    
   4499.000       1.179341    
   4499.900       1.167464    
   4500.800       1.139178    
   4501.700       1.141391    
   4502.600       1.168924    
   4503.500       1.192354    
   4504.400       1.203780    
   4505.300       1.202205    
   4506.200       1.195473    
   4507.100       1.186566    
   4508.000       1.174434    
   4508.900       1.176216    
   4509.800       1.191001    
   4510.700       1.198021    
   4511.600       1.186144    
   4512.500       1.168246    
   4513.400       1.161027    
   4514.300       1.157481    
   4515.200       1.159575    
   4516.100       1.165852    
   4517.000       1.156183    
   4517.900       1.140950    
   4518.800       1.148674    
   4519.700       1.165366    
   4520.600       1.172149    
   4521.500       1.161703    
   4522.400       1.143598    
   4523.300       1.143285    
   4524.200       1.141402    
   4525.100       1.119745    
   4526.000       1.086517    
   4526.900       1.059277    
   4527.800       1.044315    
   4528.700       1.040240    
   4529.600       1.058726    
   4530.500       1.083582    
   4531.400       1.095493    
   4532.300       1.093010    
   4533.200       1.068505    
   4534.100       1.037742    
   4535.000       1.031559    
   4535.900       1.070545    
   4536.800       1.135010    
   4537.700       1.184017    
   4538.600       1.195845    
   4539.500       1.179139    
   4540.400       1.159848    
   4541.300       1.161261    
   4542.200       1.176093    
   4543.100       1.175047    
   4544.000       1.153559    
   4544.900       1.137133    
   4545.800       1.132977    
   4546.700       1.137976    
   4547.600       1.125172    
   4548.500       1.078897    
   4549.400       1.049394    
   4550.300       1.074229    
   4551.200       1.114974    
   4552.100       1.125093    
   4553.000       1.116127    
   4553.900       1.101575    
   4554.800       1.089592    
   4555.700       1.102033    
   4556.600       1.139115    
   4557.500       1.166936    
   4558.400       1.173671    
   4559.300       1.182012    
   4560.200       1.193229    
   4561.100       1.198684    
   4562.000       1.190376    
   4562.900       1.165540    
   4563.800       1.135069    
   4564.700       1.125746    
   4565.600       1.135939    
   4566.500       1.156564    
   4567.400       1.181795    
   4568.300       1.193679    
   4569.200       1.187024    
   4570.100       1.159101    
   4571.000       1.115375    
   4571.900       1.107694    
   4572.800       1.145856    
   4573.700       1.186766    
   4574.600       1.201024    
   4575.500       1.194727    
   4576.400       1.186734    
   4577.300       1.179887    
   4578.200       1.170799    
   4579.100       1.155236    
   4580.000       1.130792    
   4580.900       1.115272    
   4581.800       1.116909    
   4582.700       1.123447    
   4583.600       1.126205    
   4584.500       1.125076    
   4585.400       1.121642    
   4586.300       1.130182    
   4587.200       1.150981    
   4588.100       1.169662    
   4589.000       1.174142    
   4589.900       1.161786    
   4590.800       1.143872    
   4591.700       1.130208    
   4592.600       1.129291    
   4593.500       1.146672    
   4594.400       1.159804    
   4595.300       1.152230    
   4596.200       1.144137    
   4597.100       1.143667    
   4598.000       1.143287    
   4598.900       1.141862    
   4599.800       1.137139    
   4600.700       1.132199    
   4601.600       1.134092    
   4602.500       1.138520    
   4603.400       1.140153    
   4604.300       1.140126    
   4605.200       1.142386    
   4606.100       1.147837    
   4607.000       1.157301    
   4607.900       1.171457    
   4608.800       1.182720    
   4609.700       1.179112    
   4610.600       1.163629    
   4611.500       1.149112    
   4612.400       1.145053    
   4613.300       1.152255    
   4614.200       1.162434    
   4615.100       1.159600    
   4616.000       1.147966    
   4616.900       1.139412    
   4617.800       1.133166    
   4618.700       1.131201    
   4619.600       1.142533    
   4620.500       1.165617    
   4621.400       1.182516    
   4622.300       1.176752    
   4623.200       1.164202    
   4624.100       1.157127    
   4625.000       1.150552    
   4625.900       1.152501    
   4626.800       1.162804    
   4627.700       1.160767    
   4628.600       1.146727    
   4629.500       1.142896    
   4630.400       1.157958    
   4631.300       1.169289    
   4632.200       1.160811    
   4633.100       1.150018    
   4634.000       1.153301    
   4634.900       1.162165    
   4635.800       1.159620    
   4636.700       1.139485    
   4637.600       1.126332    
   4638.500       1.132521    
   4639.400       1.141620    
   4640.300       1.149841    
   4641.200       1.161685    
   4642.100       1.169915    
   4643.000       1.170979    
   4643.900       1.167294    
   4644.800       1.155518    
   4645.700       1.130462    
   4646.600       1.102973    
   4647.500       1.096289    
   4648.400       1.113745    
   4649.300       1.141295    
   4650.200       1.160208    
   4651.100       1.154163    
   4652.000       1.143032    
   4652.900       1.138874    
   4653.800       1.129470    
   4654.700       1.121282    
   4655.600       1.119453    
   4656.500       1.122485    
   4657.400       1.141613    
   4658.300       1.175386    
   4659.200       1.196437    
   4660.100       1.192497    
   4661.000       1.176396    
   4661.900       1.161219    
   4662.800       1.149849    
   4663.700       1.148567    
   4664.600       1.149034    
   4665.500       1.126537    
   4666.400       1.078486    
   4667.300       1.041688    
   4668.200       1.050813    
   4669.100       1.090981    
   4670.000       1.126136    
   4670.900       1.142366    
   4671.800       1.142934    
   4672.700       1.138761    
   4673.600       1.138463    
   4674.500       1.145236    
   4675.400       1.158399    
   4676.300       1.165576    
   4677.200       1.152181    
   4678.100       1.122207    
   4679.000       1.098898    
   4679.900       1.095358    
   4680.800       1.101719    
   4681.700       1.111927    
   4682.600       1.128788    
   4683.500       1.147543    
   4684.400       1.149944    
   4685.300       1.139783    
   4686.200       1.142906    
   4687.100       1.157211    
   4688.000       1.158761    
   4688.900       1.146053    
   4689.800       1.130744    
   4690.700       1.120876    
   4691.600       1.126623    
   4692.500       1.147322    
   4693.400       1.164327    
   4694.300       1.164858    
   4695.200       1.162759    
   4696.100       1.164192    
   4697.000       1.155709    
   4697.900       1.135013    
   4698.800       1.124161    
   4699.700       1.126291    
   4700.600       1.120355    
   4701.500       1.089242    
   4702.400       1.045808    
   4703.300       1.035201    
   4704.200       1.071629    
   4705.100       1.112994    
   4706.000       1.118483    
   4706.900       1.097900    
   4707.800       1.078611    
   4708.700       1.073123    
   4709.600       1.083252    
   4710.500       1.107642    
   4711.400       1.134581    
   4712.300       1.145485    
   4713.200       1.132957    
   4714.100       1.112791    
   4715.000       1.111022    
   4715.900       1.133741    
   4716.800       1.153346    
   4717.700       1.152890    
   4718.600       1.152260    
   4719.500       1.161223    
   4720.400       1.163837    
   4721.300       1.155210    
   4722.200       1.148248    
   4723.100       1.152006    
   4724.000       1.160627    
   4724.900       1.164685    
   4725.800       1.155252    
   4726.700       1.133404    
   4727.600       1.114078    
   4728.500       1.106742    
   4729.400       1.110195    
   4730.300       1.113262    
   4731.200       1.115653    
   4732.100       1.124393    
   4733.000       1.133062    
   4733.900       1.138332    
   4734.800       1.139883    
   4735.700       1.126821    
   4736.600       1.111500    
   4737.500       1.122401    
   4738.400       1.146492    
   4739.300       1.151632    
   4740.200       1.141258    
   4741.100       1.138069    
   4742.000       1.148093    
   4742.900       1.160230    
   4743.800       1.158773    
   4744.700       1.150074    
   4745.600       1.151690    
   4746.500       1.160896    
   4747.400       1.163080    
   4748.300       1.162752    
   4749.200       1.169670    
   4750.100       1.173048    
   4751.000       1.160444    
   4751.900       1.143037    
   4752.800       1.132524    
   4753.700       1.123802    
   4754.600       1.118545    
   4755.500       1.120049    
   4756.400       1.122754    
   4757.300       1.132854    
   4758.200       1.149013    
   4759.100       1.161293    
   4760.000       1.162446    
   4760.900       1.143696    
   4761.800       1.111008    
   4762.700       1.096311    
   4763.600       1.104537    
   4764.500       1.108969    
   4765.400       1.103357    
   4766.300       1.107259    
   4767.200       1.120511    
   4768.100       1.130864    
   4769.000       1.141229    
   4769.900       1.150328    
   4770.800       1.144629    
   4771.700       1.130413    
   4772.600       1.128302    
   4773.500       1.146082    
   4774.400       1.165043    
   4775.300       1.168569    
   4776.200       1.166689    
   4777.100       1.167240    
   4778.000       1.165154    
   4778.900       1.156099    
   4779.800       1.149111    
   4780.700       1.155338    
   4781.600       1.160001    
   4782.500       1.145751    
   4783.400       1.130920    
   4784.300       1.134901    
   4785.200       1.135779    
   4786.100       1.117264    
   4787.000       1.108897    
   4787.900       1.114426    
   4788.800       1.114944    
   4789.700       1.123565    
   4790.600       1.138531    
   4791.500       1.143021    
   4792.400       1.147280    
   4793.300       1.158826    
   4794.200       1.172378    
   4795.100       1.183187    
   4796.000       1.183627    
   4796.900       1.171415    
   4797.800       1.153552    
   4798.700       1.138206    
   4799.600       1.133113    
   4800.500       1.141083    
   4801.400       1.156854    
   4802.300       1.165775    
   4803.200       1.158887    
   4804.100       1.145007    
   4805.000       1.134621    
   4805.900       1.131493    
   4806.800       1.133181    
   4807.700       1.134957    
   4808.600       1.136791    
   4809.500       1.138217    
   4810.400       1.137235    
   4811.300       1.139845    
   4812.200       1.146232    
   4813.100       1.149580    
   4814.000       1.147397    
   4814.900       1.149252    
   4815.800       1.158471    
   4816.700       1.169098    
   4817.600       1.175592    
   4818.500       1.176939    
   4819.400       1.172538    
   4820.300       1.166886    
   4821.200       1.162643    
   4822.100       1.148381    
   4823.000       1.121736    
   4823.900       1.110228    
   4824.800       1.129904    
   4825.700       1.160351    
   4826.600       1.174527    
   4827.500       1.164541    
   4828.400       1.146648    
   4829.300       1.140368    
   4830.200       1.143649    
   4831.100       1.141679    
   4832.000       1.139035    
   4832.900       1.147939    
   4833.800       1.160482    
   4834.700       1.167650    
   4835.600       1.167024    
   4836.500       1.160998    
   4837.400       1.151977    
   4838.300       1.136268    
   4839.200       1.116751    
   4840.100       1.107261    
   4841.000       1.115861    
   4841.900       1.129732    
   4842.800       1.132187    
   4843.700       1.133006    
   4844.600       1.142004    
   4845.500       1.149260    
   4846.400       1.144492    
   4847.300       1.129462    
   4848.200       1.118095    
   4849.100       1.118643    
   4850.000       1.126582    
   4850.900       1.132544    
   4851.800       1.129913    
   4852.700       1.119703    
   4853.600       1.098704    
   4854.500       1.064791    
   4855.400       1.031754    
   4856.300       1.019866    
   4857.200       1.022266    
   4858.100       1.000479    
   4859.000      0.9243243    
   4859.900      0.7943982    
   4860.800      0.6786659    
   4861.700      0.6770725    
   4862.600      0.7854484    
   4863.500      0.9021434    
   4864.400      0.9727767    
   4865.300       1.008235    
   4866.200       1.031361    
   4867.100       1.053452    
   4868.000       1.074213    
   4868.900       1.083034    
   4869.800       1.063218    
   4870.700       1.018212    
   4871.600      0.9928579    
   4872.500       1.017425    
   4873.400       1.062913    
   4874.300       1.089033    
   4875.200       1.094028    
   4876.100       1.088581    
   4877.000       1.078101    
   4877.900       1.076314    
   4878.800       1.097748    
   4879.700       1.123873    
   4880.600       1.129394    
   4881.500       1.120134    
   4882.400       1.118986    
   4883.300       1.120690    
   4884.200       1.105824    
   4885.100       1.083228    
   4886.000       1.073669    
   4886.900       1.076379    
   4887.800       1.078254    
   4888.700       1.071198    
   4889.600       1.048371    
   4890.500       1.012291    
   4891.400       1.008035    
   4892.300       1.058707    
   4893.200       1.118960    
   4894.100       1.148347    
   4895.000       1.154276    
   4895.900       1.153704    
   4896.800       1.150632    
   4897.700       1.146652    
   4898.600       1.139786    
   4899.500       1.128885    
   4900.400       1.127464    
   4901.300       1.133858    
   4902.200       1.123812    
   4903.100       1.100217    
   4904.000       1.093268    
   4904.900       1.110454    
   4905.800       1.131569    
   4906.700       1.137292    
   4907.600       1.130081    
   4908.500       1.116249    
   4909.400       1.090662    
   4910.300       1.069917    
   4911.200       1.077070    
   4912.100       1.099752    
   4913.000       1.114948    
   4913.900       1.127925    
   4914.800       1.143664    
   4915.700       1.148588    
   4916.600       1.132301    
   4917.500       1.092045    
   4918.400       1.036294    
   4919.300      0.9917080    
   4920.200      0.9844063    
   4921.100       1.020925    
   4922.000       1.069527    
   4922.900       1.085351    
   4923.800       1.071348    
   4924.700       1.074092    
   4925.600       1.103326    
   4926.500       1.126667    
   4927.400       1.131613    
   4928.300       1.135425    
   4929.200       1.141681    
   4930.100       1.141708    
   4931.000       1.139543    
   4931.900       1.125649    
   4932.800       1.088054    
   4933.700       1.059937    
   4934.600       1.073111    
   4935.500       1.099909    
   4936.400       1.103522    
   4937.300       1.079518    
   4938.200       1.046398    
   4939.100       1.037455    
   4940.000       1.068020    
   4940.900       1.108958    
   4941.800       1.129590    
   4942.700       1.140161    
   4943.600       1.151366    
   4944.500       1.148654    
   4945.400       1.132244    
   4946.300       1.123134    
   4947.200       1.132075    
   4948.100       1.145366    
   4949.000       1.146286    
   4949.900       1.139812    
   4950.800       1.138853    
   4951.700       1.139405    
   4952.600       1.134795    
   4953.500       1.130715    
   4954.400       1.134905    
   4955.300       1.123684    
   4956.200       1.060905    
   4957.100      0.9832716    
   4958.000      0.9860378    
   4958.900       1.066342    
   4959.800       1.132108    
   4960.700       1.149014    
   4961.600       1.143725    
   4962.500       1.139914    
   4963.400       1.142138    
   4964.300       1.136868    
   4965.200       1.120248    
   4966.100       1.107103    
   4967.000       1.105675    
   4967.900       1.108730    
   4968.800       1.111128    
   4969.700       1.111250    
   4970.600       1.113455    
   4971.500       1.119315    
   4972.400       1.126301    
   4973.300       1.134711    
   4974.200       1.143147    
   4975.100       1.144225    
   4976.000       1.137378    
   4976.900       1.127980    
   4977.800       1.115927    
   4978.700       1.108370    
   4979.600       1.108233    
   4980.500       1.097777    
   4981.400       1.064784    
   4982.300       1.021986    
   4983.200       1.000932    
   4984.100       1.012543    
   4985.000       1.038577    
   4985.900       1.071459    
   4986.800       1.107482    
   4987.700       1.127449    
   4988.600       1.123422    
   4989.500       1.107014    
   4990.400       1.088360    
   4991.300       1.085076    
   4992.200       1.097237    
   4993.100       1.103095    
   4994.000       1.104098    
   4994.900       1.115413    
   4995.800       1.127514    
   4996.700       1.130062    
   4997.600       1.124044    
   4998.500       1.107403    
   4999.400       1.088005    
   5000.300       1.079420    
   5001.200       1.073908    
   5002.100       1.073812    
   5003.000       1.087862    
   5003.900       1.096098    
   5004.800       1.068200    
   5005.700       1.024263    
   5006.600       1.018606    
   5007.500       1.063978    
   5008.400       1.114239    
   5009.300       1.128515    
   5010.200       1.111321    
   5011.100       1.082177    
   5012.000       1.052472    
   5012.900       1.030205    
   5013.800       1.018047    
   5014.700       1.028827    
   5015.600       1.055439    
   5016.500       1.063197    
   5017.400       1.043672    
   5018.300       1.031848    
   5019.200       1.049748    
   5020.100       1.076262    
   5021.000       1.082702    
   5021.900       1.068281    
   5022.800       1.064051    
   5023.700       1.082342    
   5024.600       1.096204    
   5025.500       1.093349    
   5026.400       1.077894    
   5027.300       1.064762    
   5028.200       1.073806    
   5029.100       1.099382    
   5030.000       1.110476    
   5030.900       1.108392    
   5031.800       1.116514    
   5032.700       1.134612    
   5033.600       1.135242    
   5034.500       1.099885    
   5035.400       1.057605    
   5036.300       1.049286    
   5037.200       1.068084    
   5038.100       1.070448    
   5039.000       1.046273    
   5039.900       1.012173    
   5040.800      0.9782293    
   5041.700      0.9804896    
   5042.600       1.034773    
   5043.500       1.089067    
   5044.400       1.112358    
   5045.300       1.122374    
   5046.200       1.126088    
   5047.100       1.116194    
   5048.000       1.091353    
   5048.900       1.063080    
   5049.800       1.050919    
   5050.700       1.054001    
   5051.600       1.066438    
   5052.500       1.090507    
   5053.400       1.115871    
   5054.300       1.128458    
   5055.200       1.131370    
   5056.100       1.132642    
   5057.000       1.132126    
   5057.900       1.131489    
   5058.800       1.133188    
   5059.700       1.135693    
   5060.600       1.139000    
   5061.500       1.142042    
   5062.400       1.138501    
   5063.300       1.115355    
   5064.200       1.078325    
   5065.100       1.061198    
   5066.000       1.075991    
   5066.900       1.089912    
   5067.800       1.085371    
   5068.700       1.081862    
   5069.600       1.095237    
   5070.500       1.105550    
   5071.400       1.092659    
   5072.300       1.079662    
   5073.200       1.087698    
   5074.100       1.090781    
   5075.000       1.085210    
   5075.900       1.091690    
   5076.800       1.099414    
   5077.700       1.087008    
   5078.600       1.045637    
   5079.500       1.002159    
   5080.400      0.9967657    
   5081.300       1.025561    
   5082.200       1.048620    
   5083.100       1.051279    
   5084.000       1.060392    
   5084.900       1.084840    
   5085.800       1.100531    
   5086.700       1.101393    
   5087.600       1.099213    
   5088.500       1.100153    
   5089.400       1.101162    
   5090.300       1.097878    
   5091.200       1.101666    
   5092.100       1.112794    
   5093.000       1.118577    
   5093.900       1.118322    
   5094.800       1.117994    
   5095.700       1.110253    
   5096.600       1.083319    
   5097.500       1.047442    
   5098.400       1.020486    
   5099.300       1.022390    
   5100.200       1.054908    
   5101.100       1.090516    
   5102.000       1.107461    
   5102.900       1.107376    
   5103.800       1.100351    
   5104.700       1.092248    
   5105.600       1.082712    
   5106.500       1.063397    
   5107.400       1.045925    
   5108.300       1.049658    
   5109.200       1.054051    
   5110.100       1.048649    
   5111.000       1.064662    
   5111.900       1.095589    
   5112.800       1.111717    
   5113.700       1.111842    
   5114.600       1.102927    
   5115.500       1.100557    
   5116.400       1.111004    
   5117.300       1.121060    
   5118.200       1.123551    
   5119.100       1.121802    
   5120.000       1.113213    
   5120.900       1.097607    
   5121.800       1.084447    
   5122.700       1.068258    
   5123.600       1.046689    
   5124.500       1.036131    
   5125.400       1.044244    
   5126.300       1.057419    
   5127.200       1.062424    
   5128.100       1.057810    
   5129.000       1.052212    
   5129.900       1.060520    
   5130.800       1.075048    
   5131.700       1.076954    
   5132.600       1.069726    
   5133.500       1.070182    
   5134.400       1.085674    
   5135.300       1.097972    
   5136.200       1.086103    
   5137.100       1.056769    
   5138.000       1.028274    
   5138.900       1.009551    
   5139.800       1.017339    
   5140.700       1.042222    
   5141.600       1.041478    
   5142.500       1.022197    
   5143.400       1.035348    
   5144.300       1.069559    
   5145.200       1.080014    
   5146.100       1.067163    
   5147.000       1.052443    
   5147.900       1.049606    
   5148.800       1.063446    
   5149.700       1.073786    
   5150.600       1.064561    
   5151.500       1.052108    
   5152.400       1.053771    
   5153.300       1.059834    
   5154.200       1.061675    
   5155.100       1.064006    
   5156.000       1.075336    
   5156.900       1.092696    
   5157.800       1.099485    
   5158.700       1.093622    
   5159.600       1.090339    
   5160.500       1.089150    
   5161.400       1.075635    
   5162.300       1.059347    
   5163.200       1.059375    
   5164.100       1.054587    
   5165.000       1.016081    
   5165.900      0.9368453    
   5166.800      0.8458797    
   5167.700      0.8115604    
   5168.600      0.8628578    
   5169.500      0.9426687    
   5170.400      0.9616693    
   5171.300      0.8801919    
   5172.200      0.7733945    
   5173.100      0.7745039    
   5174.000      0.8972716    
   5174.900       1.021462    
   5175.800       1.070994    
   5176.700       1.080363    
   5177.600       1.088282    
   5178.500       1.088975    
   5179.400       1.078726    
   5180.300       1.061993    
   5181.200       1.013836    
   5182.100      0.9020895    
   5183.000      0.7667947    
   5183.900      0.7276537    
   5184.800      0.8251529    
   5185.700      0.9568289    
   5186.600       1.027991    
   5187.500       1.035621    
   5188.400       1.020265    
   5189.300       1.026563    
   5190.200       1.038003    
   5191.100       1.011894    
   5192.000      0.9800867    
   5192.900      0.9909748    
   5193.800       1.014710    
   5194.700       1.014668    
   5195.600       1.009128    
   5196.500       1.019019    
   5197.400       1.034057    
   5198.300       1.046304    
   5199.200       1.061683    
   5200.100       1.072498    
   5201.000       1.066150    
   5201.900       1.050744    
   5202.800       1.040012    
   5203.700       1.025355    
   5204.600       1.000828    
   5205.500      0.9884733    
   5206.400      0.9982330    
   5207.300      0.9997153    
   5208.200      0.9869043    
   5209.100      0.9942180    
   5210.000       1.024295    
   5210.900       1.052663    
   5211.800       1.075219    
   5212.700       1.089895    
   5213.600       1.083724    
   5214.500       1.055598    
   5215.400       1.025244    
   5216.300       1.011628    
   5217.200       1.018645    
   5218.100       1.041018    
   5219.000       1.066809    
   5219.900       1.081984    
   5220.800       1.087591    
   5221.700       1.090362    
   5222.600       1.087337    
   5223.500       1.072301    
   5224.400       1.046824    
   5225.300       1.002673    
   5226.200      0.9468002    
   5227.100      0.9294726    
   5228.000      0.9732574    
   5228.900       1.027469    
   5229.800       1.053345    
   5230.700       1.061475    
   5231.600       1.050747    
   5232.500       1.024641    
   5233.400       1.013752    
   5234.300       1.022939    
   5235.200       1.039557    
   5236.100       1.060433    
   5237.000       1.078491    
   5237.900       1.085329    
   5238.800       1.082541    
   5239.700       1.079385    
   5240.600       1.082437    
   5241.500       1.080922    
   5242.400       1.073292    
   5243.300       1.071814    
   5244.200       1.079623    
   5245.100       1.088220    
   5246.000       1.085141    
   5246.900       1.071761    
   5247.800       1.062012    
   5248.700       1.058514    
   5249.600       1.049178    
   5250.500       1.043674    
   5251.400       1.055347    
   5252.300       1.065544    
   5253.200       1.059850    
   5254.100       1.050342    
   5255.000       1.051165    
   5255.900       1.065645    
   5256.800       1.082238    
   5257.700       1.092206    
   5258.600       1.094958    
   5259.500       1.089622    
   5260.400       1.069999    
   5261.300       1.032989    
   5262.200      0.9941690    
   5263.100      0.9706663    
   5264.000      0.9561653    
   5264.900      0.9427572    
   5265.800      0.9421377    
   5266.700      0.9701079    
   5267.600      0.9959747    
   5268.500      0.9689639    
   5269.400      0.9148803    
   5270.300      0.9175783    
   5271.200      0.9813432    
   5272.100       1.026413    
   5273.000       1.027039    
   5273.900       1.018503    
   5274.800       1.010227    
   5275.700       1.007064    
   5276.600       1.027717    
   5277.500       1.062390    
   5278.400       1.079691    
   5279.300       1.073126    
   5280.200       1.054255    
   5281.100       1.034586    
   5282.000       1.017995    
   5282.900       1.003911    
   5283.800       1.004757    
   5284.700       1.033719    
   5285.600       1.071585    
   5286.500       1.091316    
   5287.400       1.091070    
   5288.300       1.085660    
   5289.200       1.084837    
   5290.100       1.088347    
   5291.000       1.091609    
   5291.900       1.088690    
   5292.800       1.081895    
   5293.700       1.079192    
   5294.600       1.078181    
   5295.500       1.066714    
   5296.400       1.037465    
   5297.300       1.005684    
   5298.200       1.002133    
   5299.100       1.029994    
   5300.000       1.055566    
   5300.900       1.054324    
   5301.800       1.041461    
   5302.700       1.043577    
   5303.600       1.062003    
   5304.500       1.077180    
   5305.400       1.077507    
   5306.300       1.065896    
   5307.200       1.057582    
   5308.100       1.063036    
   5309.000       1.077157    
   5309.900       1.086017    
   5310.800       1.086628    
   5311.700       1.086340    
   5312.600       1.086020    
   5313.500       1.081437    
   5314.400       1.071485    
   5315.300       1.052071    
   5316.200       1.031945    
   5317.100       1.032600    
   5318.000       1.050543    
   5318.900       1.062608    
   5319.800       1.063103    
   5320.700       1.059477    
   5321.600       1.054410    
   5322.500       1.039506    
   5323.400       1.014711    
   5324.300       1.002444    
   5325.200       1.015211    
   5326.100       1.018765    
   5327.000      0.9777329    
   5327.900      0.9221302    
   5328.800      0.9202570    
   5329.700      0.9769629    
   5330.600       1.034575    
   5331.500       1.054906    
   5332.400       1.049745    
   5333.300       1.048109    
   5334.200       1.056466    
   5335.100       1.061892    
   5336.000       1.056296    
   5336.900       1.051269    
   5337.800       1.050832    
   5338.700       1.038710    
   5339.600       1.010429    
   5340.500      0.9932599    
   5341.400       1.007552    
   5342.300       1.035223    
   5343.200       1.052311    
   5344.100       1.053682    
   5345.000       1.043799    
   5345.900       1.036313    
   5346.800       1.036436    
   5347.700       1.031900    
   5348.600       1.022165    
   5349.500       1.023453    
   5350.400       1.042120    
   5351.300       1.061443    
   5352.200       1.064151    
   5353.100       1.056824    
   5354.000       1.059091    
   5354.900       1.071978    
   5355.800       1.081656    
   5356.700       1.084131    
   5357.600       1.082612    
   5358.500       1.080531    
   5359.400       1.080514    
   5360.300       1.078396    
   5361.200       1.067723    
   5362.100       1.053637    
   5363.000       1.043631    
   5363.900       1.033483    
   5364.800       1.021792    
   5365.700       1.021392    
   5366.600       1.028396    
   5367.500       1.030440    
   5368.400       1.026331    
   5369.300       1.010999    
   5370.200      0.9849853    
   5371.100      0.9742067    
   5372.000      0.9988178    
   5372.900       1.037914    
   5373.800       1.060886    
   5374.700       1.068947    
   5375.600       1.073006    
   5376.500       1.072471    
   5377.400       1.067304    
   5378.300       1.059365    
   5379.200       1.051450    
   5380.100       1.045421    
   5381.000       1.041491    
   5381.900       1.033709    
   5382.800       1.025268    
   5383.700       1.031673    
   5384.600       1.051649    
   5385.500       1.066417    
   5386.400       1.071212    
   5387.300       1.067385    
   5388.200       1.056932    
   5389.100       1.044672    
   5390.000       1.038534    
   5390.900       1.035535    
   5391.800       1.025380    
   5392.700       1.017891    
   5393.600       1.028098    
   5394.500       1.044985    
   5395.400       1.041787    
   5396.300       1.014221    
   5397.200      0.9970416    
   5398.100       1.008814    
   5399.000       1.025066    
   5399.900       1.029868    
   5400.800       1.037297    
   5401.700       1.044362    
   5402.600       1.030152    
   5403.500      0.9949338    
   5404.400      0.9639130    
   5405.300      0.9592664    
   5406.200      0.9854079    
   5407.100       1.019789    
   5408.000       1.031854    
   5408.900       1.014259    
   5409.800      0.9919508    
   5410.700      0.9936820    
   5411.600       1.019784    
   5412.500       1.041784    
   5413.400       1.039159    
   5414.300       1.021654    
   5415.200       1.017025    
   5416.100       1.032472    
   5417.000       1.045608    
   5417.900       1.044465    
   5418.800       1.039055    
   5419.700       1.036548    
   5420.600       1.037698    
   5421.500       1.039406    
   5422.400       1.030945    
   5423.300       1.009203    
   5424.200      0.9963312    
   5425.100       1.012803    
   5426.000       1.042233    
   5426.900       1.056848    
   5427.800       1.041412    
   5428.700       1.001351    
   5429.600      0.9787658    
   5430.500      0.9990923    
   5431.400       1.027039    
   5432.300       1.028165    
   5433.200       1.008933    
   5434.100      0.9926679    
   5435.000      0.9960262    
   5435.900       1.015342    
   5436.800       1.035159    
   5437.700       1.048880    
   5438.600       1.055623    
   5439.500       1.058707    
   5440.400       1.060438    
   5441.300       1.060052    
   5442.200       1.058585    
   5443.100       1.053167    
   5444.000       1.034869    
   5444.900       1.004531    
   5445.800      0.9731523    
   5446.700      0.9654158    
   5447.600      0.9957361    
   5448.500       1.036443    
   5449.400       1.058719    
   5450.300       1.062538    
   5451.200       1.057915    
   5452.100       1.053294    
   5453.000       1.043631    
   5453.900       1.015423    
   5454.800      0.9781758    
   5455.700      0.9707685    
   5456.600       1.002978    
   5457.500       1.038125    
   5458.400       1.053933    
   5459.300       1.055490    
   5460.200       1.049174    
   5461.100       1.032618    
   5462.000       1.004485    
   5462.900      0.9875375    
   5463.800       1.000132    
   5464.700       1.022202    
   5465.600       1.027874    
   5466.500       1.027064    
   5467.400       1.035663    
   5468.300       1.042909    
   5469.200       1.043185    
   5470.100       1.041833    
   5471.000       1.040128    
   5471.900       1.033558    
   5472.800       1.022313    
   5473.700       1.017055    
   5474.600       1.010673    
   5475.500      0.9839746    
   5476.400      0.9562154    
   5477.300      0.9648750    
   5478.200       1.001368    
   5479.100       1.025277    
   5480.000       1.021970    
   5480.900       1.011469    
   5481.800       1.011876    
   5482.700       1.018856    
   5483.600       1.027159    
   5484.500       1.036834    
   5485.400       1.041010    
   5486.300       1.031579    
   5487.200       1.015126    
   5488.100       1.011489    
   5489.000       1.021092    
   5489.900       1.031350    
   5490.800       1.038128    
   5491.700       1.037137    
   5492.600       1.028621    
   5493.500       1.023005    
   5494.400       1.025996    
   5495.300       1.027800    
   5496.200       1.018235    
   5497.100       1.005551    
   5498.000       1.011684    
   5498.900       1.029976    
   5499.800       1.033823    
   5500.700       1.017829    
   5501.600       1.002662    
   5502.500       1.006840    
   5503.400       1.020831    
   5504.300       1.027904    
   5505.200       1.020024    
   5506.100       1.006637    
   5507.000       1.006624    
   5507.900       1.019863    
   5508.800       1.027394    
   5509.700       1.025987    
   5510.600       1.021504    
   5511.500       1.010372    
   5512.400      0.9981672    
   5513.300      0.9991026    
   5514.200       1.010722    
   5515.100       1.022766    
   5516.000       1.032722    
   5516.900       1.039366    
   5517.800       1.041588    
   5518.700       1.041578    
   5519.600       1.041714    
   5520.500       1.041547    
   5521.400       1.039781    
   5522.300       1.039325    
   5523.200       1.040787    
   5524.100       1.038333    
   5525.000       1.026152    
   5525.900       1.006903    
   5526.800      0.9783456    
   5527.700      0.9507492    
   5528.600      0.9521412    
   5529.500      0.9883651    
   5530.400       1.022335    
   5531.300       1.032104    
   5532.200       1.032295    
   5533.100       1.029223    
   5534.000       1.018580    
   5534.900       1.010412    
   5535.800       1.016784    
   5536.700       1.029816    
   5537.600       1.036037    
   5538.500       1.037858    
   5539.400       1.040876    
   5540.300       1.041926    
   5541.200       1.038922    
   5542.100       1.030340    
   5543.000       1.019685    
   5543.900       1.018061    
   5544.800       1.024513    
   5545.700       1.028841    
   5546.600       1.030865    
   5547.500       1.033508    
   5548.400       1.038200    
   5549.300       1.040913    
   5550.200       1.042581    
   5551.100       1.041434    
   5552.000       1.036854    
   5552.900       1.030125    
   5553.800       1.020434    
   5554.700       1.016757    
   5555.600       1.024715    
   5556.500       1.031443    
   5557.400       1.029734    
   5558.300       1.025787    
   5559.200       1.022179    
   5560.100       1.014994    
   5561.000       1.005342    
   5561.900      0.9984372    
   5562.800      0.9960488    
   5563.700      0.9980265    
   5564.600      0.9997427    
   5565.500      0.9996536    
   5566.400       1.000501    
   5567.300       1.002373    
   5568.200       1.001018    
   5569.100      0.9953864    
   5570.000      0.9971306    
   5570.900      0.9993266    
   5571.800      0.9840948    
   5572.700      0.9729388    
   5573.600      0.9875410    
   5574.500       1.003693    
   5575.400       1.001194    
   5576.300      0.9983099    
   5577.200       1.007123    
   5578.100       1.015517    
   5579.000       1.020261    
   5579.900       1.019867    
   5580.800       1.009788    
   5581.700       1.000912    
   5582.600       1.002831    
   5583.500       1.009964    
   5584.400       1.009140    
   5585.300      0.9880629    
   5586.200      0.9559353    
   5587.100      0.9379565    
   5588.000      0.9368334    
   5588.900      0.9429617    
   5589.800      0.9603218    
   5590.700      0.9862553    
   5591.600       1.001388    
   5592.500      0.9939737    
   5593.400      0.9713903    
   5594.300      0.9604227    
   5595.200      0.9814411    
   5596.100       1.007295    
   5597.000       1.003586    
   5597.900      0.9821610    
   5598.800      0.9767016    
   5599.700      0.9847535    
   5600.600      0.9772106    
   5601.500      0.9579290    
   5602.400      0.9515513    
   5603.300      0.9705220    
   5604.200       1.003064    
   5605.100       1.020043    
   5606.000       1.021614    
   5606.900       1.022564    
   5607.800       1.022243    
   5608.700       1.021459    
   5609.600       1.022214    
   5610.500       1.019894    
   5611.400       1.019036    
   5612.300       1.019587    
   5613.200       1.011022    
   5614.100      0.9781052    
   5615.000      0.9344974    
   5615.900      0.9324766    
   5616.800      0.9708037    
   5617.700      0.9977586    
   5618.600      0.9999482    
   5619.500      0.9981852    
   5620.400       1.004843    
   5621.300       1.011816    
   5622.200       1.009549    
   5623.100      0.9965643    
   5624.000      0.9784440    
   5624.900      0.9751604    
   5625.800      0.9908312    
   5626.700       1.004080    
   5627.600       1.008061    
   5628.500       1.014106    
   5629.400       1.020738    
   5630.300       1.021316    
   5631.200       1.018048    
   5632.100       1.010944    
   5633.000       1.002694    
   5633.900       1.001231    
   5634.800       1.004071    
   5635.700       1.004261    
   5636.600      0.9994983    
   5637.500      0.9882265    
   5638.400      0.9867359    
   5639.300      0.9957423    
   5640.200      0.9969131    
   5641.100      0.9917204    
   5642.000      0.9923934    
   5642.900      0.9939308    
   5643.800      0.9908402    
   5644.700      0.9915189    
   5645.600      0.9965017    
   5646.500       1.004262    
   5647.400       1.014458    
   5648.300       1.014899    
   5649.200       1.008047    
   5650.100       1.006313    
   5651.000       1.008045    
   5651.900       1.008690    
   5652.800       1.007244    
   5653.700       1.000492    
   5654.600      0.9896039    
   5655.500      0.9883666    
   5656.400      0.9864869    
   5657.300      0.9625263    
   5658.200      0.9383036    
   5659.100      0.9489726    
   5660.000      0.9780250    
   5660.900      0.9881477    
   5661.800      0.9772790    
   5662.700      0.9695447    
   5663.600      0.9791892    
   5664.500      0.9913271    
   5665.400      0.9989789    
   5666.300       1.000610    
   5667.200      0.9967207    
   5668.100      0.9952512    
   5669.000      0.9954434    
   5669.900      0.9969695    
   5670.800       1.003785    
   5671.700       1.012686    
   5672.600       1.013550    
   5673.500       1.005684    
   5674.400      0.9968573    
   5675.300      0.9904336    
   5676.200      0.9933522    
   5677.100       1.003310    
   5678.000       1.005155    
   5678.900      0.9995513    
   5679.800      0.9956175    
   5680.700      0.9914950    
   5681.600      0.9802251    
   5682.500      0.9687980    
   5683.400      0.9671015    
   5684.300      0.9722518    
   5685.200      0.9777337    
   5686.100      0.9761058    
   5687.000      0.9671122    
   5687.900      0.9635546    
   5688.800      0.9704694    
   5689.700      0.9817563    
   5690.600      0.9924502    
   5691.500       1.000984    
   5692.400       1.001974    
   5693.300      0.9967075    
   5694.200      0.9934227    
   5695.100      0.9959129    
   5696.000      0.9987325    
   5696.900      0.9975591    
   5697.800      0.9916281    
   5698.700      0.9863251    
   5699.600      0.9835169    
   5700.500      0.9818315    
   5701.400      0.9800619    
   5702.300      0.9842638    
   5703.200      0.9950404    
   5704.100      0.9990078    
   5705.000      0.9907291    
   5705.900      0.9802039    
   5706.800      0.9734401    
   5707.700      0.9627042    
   5708.600      0.9440346    
   5709.500      0.9312193    
   5710.400      0.9295486    
   5711.300      0.9360024    
   5712.200      0.9562832    
   5713.100      0.9822136    
   5714.000      0.9935209    
   5714.900      0.9930533    
   5715.800      0.9928033    
   5716.700      0.9933405    
   5717.600      0.9930933    
   5718.500      0.9968659    
   5719.400       1.001535    
   5720.300       1.001076    
   5721.200      0.9978981    
   5722.100      0.9978414    
   5723.000       1.001766    
   5723.900       1.004368    
   5724.800       1.004751    
   5725.700       1.004250    
   5726.600       1.002103    
   5727.500       1.001454    
   5728.400       1.002710    
   5729.300      0.9998918    
   5730.200      0.9930220    
   5731.100      0.9877489    
   5732.000      0.9893146    
   5732.900      0.9953055    
   5733.800      0.9998626    
   5734.700       1.006263    
   5735.600       1.010688    
   5736.500       1.007168    
   5737.400       1.003803    
   5738.300       1.004863    
   5739.200       1.007377    
   5740.100       1.004840    
   5741.000      0.9966608    
   5741.900      0.9903234    
   5742.800      0.9913089    
   5743.700       1.001910    
   5744.600       1.011810    
   5745.500       1.007655    
   5746.400      0.9950039    
   5747.300      0.9862992    
   5748.200      0.9888301    
   5749.100      0.9994961    
   5750.000       1.007373    
   5750.900       1.002811    
   5751.800      0.9858968    
   5752.700      0.9688302    
   5753.600      0.9638870    
   5754.500      0.9727850    
   5755.400      0.9864724    
   5756.300      0.9957265    
   5757.200       1.000089    
   5758.100      0.9988535    
   5759.000      0.9951978    
   5759.900      0.9932789    
   5760.800      0.9899830    
   5761.700      0.9780011    
   5762.600      0.9644029    
   5763.500      0.9669166    
   5764.400      0.9845912    
   5765.300      0.9983947    
   5766.200       1.001373    
   5767.100      0.9998370    
   5768.000      0.9970071    
   5768.900      0.9948283    
   5769.800      0.9942025    
   5770.700      0.9918946    
   5771.600      0.9871372    
   5772.500      0.9842293    
   5773.400      0.9843134    
   5774.300      0.9826253    
   5775.200      0.9845417    
   5776.100      0.9907720    
   5777.000      0.9931507    
   5777.900      0.9916365    
   5778.800      0.9875161    
   5779.700      0.9792312    
   5780.600      0.9703847    
   5781.500      0.9674982    
   5782.400      0.9699308    
   5783.300      0.9705139    
   5784.200      0.9666184    
   5785.100      0.9643407    
   5786.000      0.9711803    
   5786.900      0.9817981    
   5787.800      0.9871864    
   5788.700      0.9891239    
   5789.600      0.9845841    
   5790.500      0.9716483    
   5791.400      0.9638059    
   5792.300      0.9641913    
   5793.200      0.9692981    
   5794.100      0.9795212    
   5795.000      0.9874097    
   5795.900      0.9862972    
   5796.800      0.9789373    
   5797.700      0.9739495    
   5798.600      0.9763405    
   5799.500      0.9841542    
   5800.400      0.9922587    
   5801.300      0.9967087    
   5802.200      0.9959756    
   5803.100      0.9911807    
   5804.000      0.9851156    
   5804.900      0.9807047    
   5805.800      0.9773081    
   5806.700      0.9768186    
   5807.600      0.9796829    
   5808.500      0.9824159    
   5809.400      0.9826418    
   5810.300      0.9815881    
   5811.200      0.9848787    
   5812.100      0.9878383    
   5813.000      0.9855503    
   5813.900      0.9790589    
   5814.800      0.9720616    
   5815.700      0.9669611    
   5816.600      0.9710049    
   5817.500      0.9837151    
   5818.400      0.9925447    
   5819.300      0.9909714    
   5820.200      0.9863836    
   5821.100      0.9866388    
   5822.000      0.9872057    
   5822.900      0.9854363    
   5823.800      0.9844495    
   5824.700      0.9857113    
   5825.600      0.9857938    
   5826.500      0.9883507    
   5827.400      0.9912559    
   5828.300      0.9902701    
   5829.200      0.9902885    
   5830.100      0.9869212    
   5831.000      0.9783543    
   5831.900      0.9769299    
   5832.800      0.9837011    
   5833.700      0.9894394    
   5834.600      0.9890514    
   5835.500      0.9825246    
   5836.400      0.9786209    
   5837.300      0.9798918    
   5838.200      0.9837793    
   5839.100      0.9873947    
   5840.000      0.9918361    
   5840.900      0.9962322    
   5841.800      0.9971471    
   5842.700      0.9939457    
   5843.600      0.9899996    
   5844.500      0.9861581    
   5845.400      0.9826525    
   5846.300      0.9788953    
   5847.200      0.9755758    
   5848.100      0.9767354    
   5849.000      0.9827203    
   5849.900      0.9848082    
   5850.800      0.9764522    
   5851.700      0.9650836    
   5852.600      0.9592308    
   5853.500      0.9595962    
   5854.400      0.9659095    
   5855.300      0.9686413    
   5856.200      0.9554718    
   5857.100      0.9349233    
   5858.000      0.9331034    
   5858.900      0.9515467    
   5859.800      0.9666232    
   5860.700      0.9675644    
   5861.600      0.9601775    
   5862.500      0.9580134    
   5863.400      0.9668608    
   5864.300      0.9748559    
   5865.200      0.9753250    
   5866.100      0.9730675    
   5867.000      0.9718563    
   5867.900      0.9744946    
   5868.800      0.9786025    
   5869.700      0.9848615    
   5870.600      0.9866727    
   5871.500      0.9813535    
   5872.400      0.9776294    
   5873.300      0.9770693    
   5874.200      0.9752896    
   5875.100      0.9755208    
   5876.000      0.9753914    
   5876.900      0.9738495    
   5877.800      0.9740978    
   5878.700      0.9776291    
   5879.600      0.9755372    
   5880.500      0.9697042    
   5881.400      0.9691210    
   5882.300      0.9690509    
   5883.200      0.9603829    
   5884.100      0.9556135    
   5885.000      0.9645742    
   5885.900      0.9728995    
   5886.800      0.9705670    
   5887.700      0.9487600    
   5888.600      0.8847477    
   5889.500      0.8095369    
   5890.400      0.8068263    
   5891.300      0.8703572    
   5892.200      0.9189104    
   5893.100      0.9341762    
   5894.000      0.9218205    
   5894.900      0.8740313    
   5895.800      0.8317919    
   5896.700      0.8541263    
   5897.600      0.9135135    
   5898.500      0.9460284    
   5899.400      0.9517512    
   5900.300      0.9561924    
   5901.200      0.9613822    
   5902.100      0.9597682    
   5903.000      0.9588457    
   5903.900      0.9621654    
   5904.800      0.9618555    
   5905.700      0.9579653    
   5906.600      0.9580151    
   5907.500      0.9632970    
   5908.400      0.9662158    
   5909.300      0.9621159    
   5910.200      0.9597507    
   5911.100      0.9633695    
   5912.000      0.9612728    
   5912.900      0.9444543    
   5913.800      0.9285603    
   5914.700      0.9297758    
   5915.600      0.9408817    
   5916.500      0.9478543    
   5917.400      0.9511083    
   5918.300      0.9545239    
   5919.200      0.9544303    
   5920.100      0.9543948    
   5921.000      0.9558427    
   5921.900      0.9587349    
   5922.800      0.9622393    
   5923.700      0.9618189    
   5924.600      0.9582234    
   5925.500      0.9548314    
   5926.400      0.9565518    
   5927.300      0.9595987    
   5928.200      0.9582599    
   5929.100      0.9497867    
   5930.000      0.9443240    
   5930.900      0.9515579    
   5931.800      0.9605887    
   5932.700      0.9561824    
   5933.600      0.9455602    
   5934.500      0.9431888    
   5935.400      0.9495620    
   5936.300      0.9560611    
   5937.200      0.9576460    
   5938.100      0.9604920    
   5939.000      0.9645641    
   5939.900      0.9646516    
   5940.800      0.9579384    
   5941.700      0.9517392    
   5942.600      0.9513150    
   5943.500      0.9516773    
   5944.400      0.9517567    
   5945.300      0.9539337    
   5946.200      0.9532615    
   5947.100      0.9452901    
   5948.000      0.9323089    
   5948.900      0.9271205    
   5949.800      0.9372437    
   5950.700      0.9479504    
   5951.600      0.9501835    
   5952.500      0.9493853    
   5953.400      0.9540787    
   5954.300      0.9609172    
   5955.200      0.9575334    
   5956.100      0.9470929    
   5957.000      0.9473298    
   5957.900      0.9582848    
   5958.800      0.9627560    
   5959.700      0.9614530    
   5960.600      0.9602664    
   5961.500      0.9634330    
   5962.400      0.9675400    
   5963.300      0.9640778    
   5964.200      0.9586347    
   5965.100      0.9591255    
   5966.000      0.9607595    
   5966.900      0.9604869    
   5967.800      0.9592643    
   5968.700      0.9562305    
   5969.600      0.9554488    
   5970.500      0.9579599    
   5971.400      0.9620562    
   5972.300      0.9653205    
   5973.200      0.9645522    
   5974.100      0.9588368    
   5975.000      0.9477789    
   5975.900      0.9408233    
   5976.800      0.9432844    
   5977.700      0.9510450    
   5978.600      0.9581269    
   5979.500      0.9611109    
   5980.400      0.9655826    
   5981.300      0.9683239    
   5982.200      0.9624791    
   5983.100      0.9467177    
   5984.000      0.9305645    
   5984.900      0.9300085    
   5985.800      0.9414706    
   5986.700      0.9502059    
   5987.600      0.9511296    
   5988.500      0.9488962    
   5989.400      0.9507471    
   5990.300      0.9527118    
   5991.200      0.9487680    
   5992.100      0.9468611    
   5993.000      0.9527112    
   5993.900      0.9582859    
   5994.800      0.9573619    
   5995.700      0.9517009    
   5996.600      0.9447703    
   5997.500      0.9386249    
   5998.400      0.9371715    
   5999.300      0.9434263    
   6000.200      0.9511260    
   6001.100      0.9516199    
   6002.000      0.9449094    
   6002.900      0.9377934    
   6003.800      0.9358995    
   6004.700      0.9406844    
   6005.600      0.9438873    
   6006.500      0.9373233    
   6007.400      0.9246474    
   6008.300      0.9175051    
   6009.200      0.9242333    
   6010.100      0.9396012    
   6011.000      0.9509359    
   6011.900      0.9520668    
   6012.800      0.9465243    
   6013.700      0.9423017    
   6014.600      0.9441239    
   6015.500      0.9454738    
   6016.400      0.9437305    
   6017.300      0.9434796    
   6018.200      0.9423445    
   6019.100      0.9335548    
   6020.000      0.9213867    
   6020.900      0.9169494    
   6021.800      0.9241566    
   6022.700      0.9336696    
   6023.600      0.9327915    
   6024.500      0.9313383    
   6025.400      0.9369704    
   6026.300      0.9368055    
   6027.200      0.9360158    
   6028.100      0.9426265    
   6029.000      0.9489806    
   6029.900      0.9529225    
   6030.800      0.9540987    
   6031.700      0.9495883    
   6032.600      0.9446262    
   6033.500      0.9470351    
   6034.400      0.9537917    
   6035.300      0.9569640    
   6036.200      0.9568611    
   6037.100      0.9545107    
   6038.000      0.9491028    
   6038.900      0.9472589    
   6039.800      0.9505851    
   6040.700      0.9504545    
   6041.600      0.9480525    
   6042.500      0.9502836    
   6043.400      0.9556801    
   6044.300      0.9579037    
   6045.200      0.9545222    
   6046.100      0.9483625    
   6047.000      0.9462134    
   6047.900      0.9498308    
   6048.800      0.9531084    
   6049.700      0.9564804    
   6050.600      0.9580289    
   6051.500      0.9550422    
   6052.400      0.9550538    
   6053.300      0.9554204    
   6054.200      0.9510140    
   6055.100      0.9443585    
   6056.000      0.9393536    
   6056.900      0.9418921    
   6057.800      0.9484143    
   6058.700      0.9515629    
   6059.600      0.9501903    
   6060.500      0.9503078    
   6061.400      0.9534498    
   6062.300      0.9531996    
   6063.200      0.9463682    
   6064.100      0.9335491    
   6065.000      0.9196377    
   6065.900      0.9181023    
   6066.800      0.9293734    
   6067.700      0.9413259    
   6068.600      0.9485977    
   6069.500      0.9522949    
   6070.400      0.9549736    
   6071.300      0.9577438    
   6072.200      0.9587783    
   6073.100      0.9561502    
   6074.000      0.9538717    
   6074.900      0.9561420    
   6075.800      0.9554514    
   6076.700      0.9439892    
   6077.600      0.9295442    
   6078.500      0.9241247    
   6079.400      0.9307063    
   6080.300      0.9419965    
   6081.200      0.9484807    
   6082.100      0.9478134    
   6083.000      0.9447292    
   6083.900      0.9414824    
   6084.800      0.9375594    
   6085.700      0.9379805    
   6086.600      0.9427102    
   6087.500      0.9433489    
   6088.400      0.9395229    
   6089.300      0.9341477    
   6090.200      0.9307679    
   6091.100      0.9332580    
   6092.000      0.9378968    
   6092.900      0.9400611    
   6093.800      0.9388722    
   6094.700      0.9366129    
   6095.600      0.9357505    
   6096.500      0.9371907    
   6097.400      0.9410455    
   6098.300      0.9445894    
   6099.200      0.9453233    
   6100.100      0.9417186    
   6101.000      0.9249705    
   6101.900      0.8945737    
   6102.800      0.8794612    
   6103.700      0.9004510    
   6104.600      0.9312487    
   6105.500      0.9423162    
   6106.400      0.9391170    
   6107.300      0.9338821    
   6108.200      0.9330894    
   6109.100      0.9366556    
   6110.000      0.9379017    
   6110.900      0.9371789    
   6111.800      0.9392939    
   6112.700      0.9437450    
   6113.600      0.9467027    
   6114.500      0.9435709    
   6115.400      0.9354800    
   6116.300      0.9312784    
   6117.200      0.9318969    
   6118.100      0.9322813    
   6119.000      0.9346052    
   6119.900      0.9352289    
   6120.800      0.9197499    
   6121.700      0.8941712    
   6122.600      0.8898728    
   6123.500      0.9135053    
   6124.400      0.9346107    
   6125.300      0.9399452    
   6126.200      0.9389372    
   6127.100      0.9339783    
   6128.000      0.9299581    
   6128.900      0.9314044    
   6129.800      0.9309192    
   6130.700      0.9271955    
   6131.600      0.9272137    
   6132.500      0.9344156    
   6133.400      0.9422280    
   6134.300      0.9370973    
   6135.200      0.9156357    
   6136.100      0.8849490    
   6137.000      0.8646997    
   6137.900      0.8765808    
   6138.800      0.9084507    
   6139.700      0.9253887    
   6140.600      0.9168778    
   6141.500      0.9026602    
   6142.400      0.9074059    
   6143.300      0.9247512    
   6144.200      0.9337665    
   6145.100      0.9350916    
   6146.000      0.9363086    
   6146.900      0.9329288    
   6147.800      0.9237649    
   6148.700      0.9214188    
   6149.600      0.9277117    
   6150.500      0.9315035    
   6151.400      0.9306654    
   6152.300      0.9300316    
   6153.200      0.9273265    
   6154.100      0.9205757    
   6155.000      0.9150438    
   6155.900      0.9181772    
   6156.800      0.9261255    
   6157.700      0.9336985    
   6158.600      0.9410804    
   6159.500      0.9357627    
   6160.400      0.9034902    
   6161.300      0.8622274    
   6162.200      0.8479236    
   6163.100      0.8671539    
   6164.000      0.8927753    
   6164.900      0.9045080    
   6165.800      0.9049961    
   6166.700      0.9036134    
   6167.600      0.8961811    
   6168.500      0.8747411    
   6169.400      0.8600739    
   6170.300      0.8747364    
   6171.200      0.9019665    
   6172.100      0.9137719    
   6173.000      0.9107516    
   6173.900      0.9109063    
   6174.800      0.9147166    
   6175.700      0.9137200    
   6176.600      0.9137471    
   6177.500      0.9184448    
   6178.400      0.9203522    
   6179.300      0.9197067    
   6180.200      0.9220958    
   6181.100      0.9264740    
   6182.000      0.9282615    
   6182.900      0.9263315    
   6183.800      0.9218705    
   6184.700      0.9207460    
   6185.600      0.9220650    
   6186.500      0.9192811    
   6187.400      0.9159498    
   6188.300      0.9165596    
   6189.200      0.9162092    
   6190.100      0.9037353    
   6191.000      0.8824138    
   6191.900      0.8806594    
   6192.800      0.9009251    
   6193.700      0.9135559    
   6194.600      0.9148054    
   6195.500      0.9170978    
   6196.400      0.9201667    
   6197.300      0.9202584    
   6198.200      0.9195725    
   6199.100      0.9181005    
   6200.000      0.9133013    
   6200.900      0.9095698    
   6201.800      0.9111949    
   6202.700      0.9184136    
   6203.600      0.9256564    
   6204.500      0.9312273    
   6205.400      0.9372143    
   6206.300      0.9365298    
   6207.200      0.9313354    
   6208.100      0.9295793    
   6209.000      0.9317834    
   6209.900      0.9335516    
   6210.800      0.9296287    
   6211.700      0.9204429    
   6212.600      0.9061579    
   6213.500      0.8946260    
   6214.400      0.8930802    
   6215.300      0.8972794    
   6216.200      0.9056663    
   6217.100      0.9130114    
   6218.000      0.9091779    
   6218.900      0.8983120    
   6219.800      0.8980728    
   6220.700      0.9107925    
   6221.600      0.9194097    
   6222.500      0.9190158    
   6223.400      0.9177197    
   6224.300      0.9174867    
   6225.200      0.9149133    
   6226.100      0.9111383    
   6227.000      0.9084577    
   6227.900      0.9092253    
   6228.800      0.9060102    
   6229.700      0.8915476    
   6230.600      0.8774428    
   6231.500      0.8786640    
   6232.400      0.8906264    
   6233.300      0.9020303    
   6234.200      0.9111199    
   6235.100      0.9135723    
   6236.000      0.9082494    
   6236.900      0.9021347    
   6237.800      0.8984681    
   6238.700      0.9011080    
   6239.600      0.9073446    
   6240.500      0.9105182    
   6241.400      0.9101774    
   6242.300      0.9075466    
   6243.200      0.9008396    
   6244.100      0.8909926    
   6245.000      0.8813164    
   6245.900      0.8753694    
   6246.800      0.8791542    
   6247.700      0.8944873    
   6248.600      0.9123807    
   6249.500      0.9210916    
   6250.400      0.9193007    
   6251.300      0.9055882    
   6252.200      0.8828667    
   6253.100      0.8652884    
   6254.000      0.8638253    
   6254.900      0.8758242    
   6255.800      0.8868350    
   6256.700      0.8881316    
   6257.600      0.8819680    
   6258.500      0.8786855    
   6259.400      0.8849227    
   6260.300      0.8938963    
   6261.200      0.9001061    
   6262.100      0.9041757    
   6263.000      0.9036264    
   6263.900      0.8958049    
   6264.800      0.8839378    
   6265.700      0.8822168    
   6266.600      0.8951944    
   6267.500      0.9063712    
   6268.400      0.9083807    
   6269.300      0.9040496    
   6270.200      0.9004261    
   6271.100      0.9024339    
   6272.000      0.9069300    
   6272.900      0.9096360    
   6273.800      0.9102793    
   6274.700      0.9103140    
   6275.600      0.9110016    
   6276.500      0.9077358    
   6277.400      0.8976560    
   6278.300      0.8826018    
   6279.200      0.8734622    
   6280.100      0.8776525    
   6281.000      0.8849022    
   6281.900      0.8924774    
   6282.800      0.9022743    
   6283.700      0.9095590    
   6284.600      0.9109878    
   6285.500      0.9117541    
   6286.400      0.9128295    
   6287.300      0.9114913    
   6288.200      0.9072708    
   6289.100      0.9019197    
   6290.000      0.8929747    
   6290.900      0.8880745    
   6291.800      0.8942599    
   6292.700      0.9006047    
   6293.600      0.9005841    
   6294.500      0.8997626    
   6295.400      0.8956375    
   6296.300      0.8865780    
   6297.200      0.8822469    
   6298.100      0.8867923    
   6299.000      0.8896797    
   6299.900      0.8801176    
   6300.800      0.8631940    
   6301.700      0.8540630    
   6302.600      0.8636327    
   6303.500      0.8793848    
   6304.400      0.8886234    
   6305.300      0.8950747    
   6306.200      0.8993111    
   6307.100      0.8964536    
   6308.000      0.8915266    
   6308.900      0.8885703    
   6309.800      0.8863165    
   6310.700      0.8820598    
   6311.600      0.8793377    
   6312.500      0.8796976    
   6313.400      0.8769102    
   6314.300      0.8668304    
   6315.200      0.8601245    
   6316.100      0.8616794    
   6317.000      0.8610662    
   6317.900      0.8557174    
   6318.800      0.8589098    
   6319.700      0.8721220    
   6320.600      0.8793290    
   6321.500      0.8725356    
   6322.400      0.8661491    
   6323.300      0.8721288    
   6324.200      0.8879629    
   6325.100      0.8966537    
   6326.000      0.8939629    
   6326.900      0.8910782    
   6327.800      0.8896464    
   6328.700      0.8854873    
   6329.600      0.8797805    
   6330.500      0.8763887    
   6331.400      0.8802300    
   6332.300      0.8850631    
   6333.200      0.8831009    
   6334.100      0.8737285    
   6335.000      0.8616288    
   6335.900      0.8518422    
   6336.800      0.8495749    
   6337.700      0.8571137    
   6338.600      0.8705934    
   6339.500      0.8814442    
   6340.400      0.8854154    
   6341.300      0.8803954    
   6342.200      0.8744516    
   6343.100      0.8717675    
   6344.000      0.8724985    
   6344.900      0.8788781    
   6345.800      0.8828409    
   6346.700      0.8761474    
   6347.600      0.8690817    
   6348.500      0.8710044    
   6349.400      0.8738028    
   6350.300      0.8764033    
   6351.200      0.8786917    
   6352.100      0.8762749    
   6353.000      0.8693061    
   6353.900      0.8631364    
   6354.800      0.8594979    
   6355.700      0.8590084    
   6356.600      0.8640767    
   6357.500      0.8686944    
   6358.400      0.8658805    
   6359.300      0.8647036    
   6360.200      0.8655472    
   6361.100      0.8629301    
   6362.000      0.8616628    
   6362.900      0.8646840    
   6363.800      0.8663484    
   6364.700      0.8674972    
   6365.600      0.8707349    
   6366.500      0.8734360    
   6367.400      0.8773332    
   6368.300      0.8805099    
   6369.200      0.8821769    
   6370.100      0.8811172    
   6371.000      0.8790232    
   6371.900      0.8786114    
   6372.800      0.8785827    
   6373.700      0.8805554    
   6374.600      0.8849903    
   6375.500      0.8863565    
   6376.400      0.8863433    
   6377.300      0.8882411    
   6378.200      0.8891237    
   6379.100      0.8846368    
   6380.000      0.8781602    
   6380.900      0.8754653    
   6381.800      0.8799783    
   6382.700      0.8834593    
   6383.600      0.8784769    
   6384.500      0.8710009    
   6385.400      0.8691436    
   6386.300      0.8761631    
   6387.200      0.8822752    
   6388.100      0.8823485    
   6389.000      0.8824160    
   6389.900      0.8816099    
   6390.800      0.8788571    
   6391.700      0.8764322    
   6392.600      0.8645476    
   6393.500      0.8512572    
   6394.400      0.8564911    
   6395.300      0.8702471    
   6396.200      0.8791236    
   6397.100      0.8792633    
   6398.000      0.8713509    
   6398.900      0.8547143    
   6399.800      0.8325835    
   6400.700      0.8343892    
   6401.600      0.8602378    
   6402.500      0.8767503    
   6403.400      0.8786402    
   6404.300      0.8765123    
   6405.200      0.8722221    
   6406.100      0.8655804    
   6407.000      0.8543943    
   6407.900      0.8454805    
   6408.800      0.8517938    
   6409.700      0.8625034    
   6410.600      0.8593293    
   6411.500      0.8501846    
   6412.400      0.8548534    
   6413.300      0.8652730    
   6414.200      0.8659551    
   6415.100      0.8626864    
   6416.000      0.8632603    
   6416.900      0.8698475    
   6417.800      0.8734477    
   6418.700      0.8661433    
   6419.600      0.8510720    
   6420.500      0.8382161    
   6421.400      0.8377665    
   6422.300      0.8512307    
   6423.200      0.8670482    
   6424.100      0.8766221    
   6425.000      0.8809754    
   6425.900      0.8824117    
   6426.800      0.8839309    
   6427.700      0.8847817    
   6428.600      0.8819410    
   6429.500      0.8702555    
   6430.400      0.8528466    
   6431.300      0.8462251    
   6432.200      0.8570300    
   6433.100      0.8706514    
   6434.000      0.8783848    
   6434.900      0.8808610    
   6435.800      0.8824509    
   6436.700      0.8817716    
   6437.600      0.8671190    
   6438.500      0.8402445    
   6439.400      0.8275586    
   6440.300      0.8432344    
   6441.200      0.8649146    
   6442.100      0.8750527    
   6443.000      0.8772562    
   6443.900      0.8807949    
   6444.800      0.8830711    
   6445.700      0.8817313    
   6446.600      0.8794345    
   6447.500      0.8720106    
   6448.400      0.8580108    
   6449.300      0.8408101    
   6450.200      0.8375740    
   6451.100      0.8533090    
   6452.000      0.8671601    
   6452.900      0.8705724    
   6453.800      0.8663226    
   6454.700      0.8539941    
   6455.600      0.8426949    
   6456.500      0.8427629    
   6457.400      0.8555171    
   6458.300      0.8665531    
   6459.200      0.8698778    
   6460.100      0.8692806    
   6461.000      0.8548360    
   6461.900      0.8276268    
   6462.800      0.8150784    
   6463.700      0.8315321    
   6464.600      0.8533370    
   6465.500      0.8636955    
   6466.400      0.8661399    
   6467.300      0.8640841    
   6468.200      0.8592074    
   6469.100      0.8553524    
   6470.000      0.8493991    
   6470.900      0.8397142    
   6471.800      0.8345574    
   6472.700      0.8420008    
   6473.600      0.8547844    
   6474.500      0.8580989    
   6475.400      0.8532507    
   6476.300      0.8506730    
   6477.200      0.8535936    
   6478.100      0.8575302    
   6479.000      0.8599671    
   6479.900      0.8581057    
   6480.800      0.8526424    
   6481.700      0.8443984    
   6482.600      0.8392832    
   6483.500      0.8420860    
   6484.400      0.8490676    
   6485.300      0.8524376    
   6486.200      0.8519308    
   6487.100      0.8522301    
   6488.000      0.8552384    
   6488.900      0.8575443    
   6489.800      0.8553451    
   6490.700      0.8482094    
   6491.600      0.8425978    
   6492.500      0.8323122    
   6493.400      0.8084942    
   6494.300      0.7864981    
   6495.200      0.7843109    
   6496.100      0.7958053    
   6497.000      0.8106295    
   6497.900      0.8258765    
   6498.800      0.8309559    
   6499.700      0.8305345    
   6500.600      0.8401445    
   6501.500      0.8523188    
   6502.400      0.8557146    
   6503.300      0.8559957    
   6504.200      0.8567278    
   6505.100      0.8576783    
   6506.000      0.8596799    
   6506.900      0.8630202    
   6507.800      0.8626246    
   6508.700      0.8588136    
   6509.600      0.8563139    
   6510.500      0.8572074    
   6511.400      0.8576611    
   6512.300      0.8567908    
   6513.200      0.8548455    
   6514.100      0.8538047    
   6515.000      0.8496796    
   6515.900      0.8422909    
   6516.800      0.8361662    
   6517.700      0.8318548    
   6518.600      0.8309250    
   6519.500      0.8364060    
   6520.400      0.8426858    
   6521.300      0.8471252    
   6522.200      0.8511626    
   6523.100      0.8515602    
   6524.000      0.8454484    
   6524.900      0.8409998    
   6525.800      0.8394518    
   6526.700      0.8379191    
   6527.600      0.8387912    
   6528.500      0.8435315    
   6529.400      0.8477424    
   6530.300      0.8482752    
   6531.200      0.8443816    
   6532.100      0.8397078    
   6533.000      0.8332086    
   6533.900      0.8279457    
   6534.800      0.8281191    
   6535.700      0.8316353    
   6536.600      0.8346097    
   6537.500      0.8356655    
   6538.400      0.8353584    
   6539.300      0.8338611    
   6540.200      0.8284231    
   6541.100      0.8247339    
   6542.000      0.8260459    
   6542.900      0.8284546    
   6543.800      0.8248907    
   6544.700      0.8149112    
   6545.600      0.8028679    
   6546.500      0.7964284    
   6547.400      0.8014647    
   6548.300      0.8104168    
   6549.200      0.8121629    
   6550.100      0.8118312    
   6551.000      0.8119437    
   6551.900      0.8118482    
   6552.800      0.8084270    
   6553.700      0.7982074    
   6554.600      0.7861006    
   6555.500      0.7793226    
   6556.400      0.7740145    
   6557.300      0.7642697    
   6558.200      0.7485477    
   6559.100      0.7286221    
   6560.000      0.6982230    
   6560.900      0.6350129    
   6561.800      0.5258094    
   6562.700      0.4392164    
   6563.600      0.4671699    
   6564.500      0.5771211    
   6565.400      0.6686592    
   6566.300      0.7142695    
   6567.200      0.7376935    
   6568.100      0.7515333    
   6569.000      0.7585169    
   6569.900      0.7698321    
   6570.800      0.7852087    
   6571.700      0.7930736    
   6572.600      0.7965193    
   6573.500      0.7992277    
   6574.400      0.7997229    
   6575.300      0.8012270    
   6576.200      0.8092473    
   6577.100      0.8185989    
   6578.000      0.8242789    
   6578.900      0.8258654    
   6579.800      0.8243248    
   6580.700      0.8238889    
   6581.600      0.8282806    
   6582.500      0.8306102    
   6583.400      0.8300446    
   6584.300      0.8300929    
   6585.200      0.8287880    
   6586.100      0.8264856    
   6587.000      0.8260844    
   6587.900      0.8289861    
   6588.800      0.8340734    
   6589.700      0.8355364    
   6590.600      0.8305027    
   6591.500      0.8199237    
   6592.400      0.8030959    
   6593.300      0.7900302    
   6594.200      0.7969581    
   6595.100      0.8151984    
   6596.000      0.8235064    
   6596.900      0.8231100    
   6597.800      0.8223176    
   6598.700      0.8259016    
   6599.600      0.8329565    
   6600.500      0.8368543    
   6601.400      0.8372450    
   6602.300      0.8400999    
   6603.200      0.8412513    
   6604.100      0.8349934    
   6605.000      0.8280982    
   6605.900      0.8294261    
   6606.800      0.8340195    
   6607.700      0.8319263    
   6608.600      0.8241335    
   6609.500      0.8195627    
   6610.400      0.8228053    
   6611.300      0.8264449    
   6612.200      0.8260614    
   6613.100      0.8273110    
   6614.000      0.8308209    
   6614.900      0.8295017    
   6615.800      0.8248458    
   6616.700      0.8222751    
   6617.600      0.8223259    
   6618.500      0.8237454    
   6619.400      0.8279232    
   6620.300      0.8311646    
   6621.200      0.8299927    
   6622.100      0.8277542    
   6623.000      0.8256503    
   6623.900      0.8253600    
   6624.800      0.8254508    
   6625.700      0.8272296    
   6626.600      0.8300211    
   6627.500      0.8290343    
   6628.400      0.8267415    
   6629.300      0.8275134    
   6630.200      0.8260899    
   6631.100      0.8219705    
   6632.000      0.8198360    
   6632.900      0.8135394    
   6633.800      0.8061172    
   6634.700      0.8085659    
   6635.600      0.8177770    
   6636.500      0.8213937    
   6637.400      0.8211117    
   6638.300      0.8195633    
   6639.200      0.8173812    
   6640.100      0.8177385    
   6641.000      0.8189720    
   6641.900      0.8184161    
   6642.800      0.8145162    
   6643.700      0.8105556    
   6644.600      0.8135610    
   6645.500      0.8219305    
   6646.400      0.8257098    
   6647.300      0.8247023    
   6648.200      0.8235753    
   6649.100      0.8228608    
   6650.000      0.8219928    
   6650.900      0.8228462    
   6651.800      0.8217531    
   6652.700      0.8169411    
   6653.600      0.8165336    
   6654.500      0.8188477    
   6655.400      0.8189863    
   6656.300      0.8171427    
   6657.200      0.8160499    
   6658.100      0.8184497    
   6659.000      0.8194637    
   6659.900      0.8173271    
   6660.800      0.8133695    
   6661.700      0.8087234    
   6662.600      0.8012542    
   6663.500      0.7928853    
   6664.400      0.7933671    
   6665.300      0.8032703    
   6666.200      0.8120050    
   6667.100      0.8126861    
   6668.000      0.8085245    
   6668.900      0.8088289    
   6669.800      0.8132797    
   6670.700      0.8156133    
   6671.600      0.8192300    
   6672.500      0.8210062    
   6673.400      0.8178512    
   6674.300      0.8151270    
   6675.200      0.8143302    
   6676.100      0.8126507    
   6677.000      0.8005381    
   6677.900      0.7842502    
   6678.800      0.7867970    
   6679.700      0.8046730    
   6680.600      0.8138647    
   6681.500      0.8137913    
   6682.400      0.8161875    
   6683.300      0.8195735    
   6684.200      0.8203964    
   6685.100      0.8211939    
   6686.000      0.8202716    
   6686.900      0.8169218    
   6687.800      0.8145159    
   6688.700      0.8157266    
   6689.600      0.8176185    
   6690.500      0.8185742    
   6691.400      0.8195196    
   6692.300      0.8174496    
   6693.200      0.8118612    
   6694.100      0.8115204    
   6695.000      0.8139002    
   6695.900      0.8108221    
   6696.800      0.8087174    
   6697.700      0.8106297    
   6698.600      0.8100220    
   6699.500      0.8079131    
   6700.400      0.8086563    
   6701.300      0.8107710    
   6702.200      0.8110765    
   6703.100      0.8093128    
   6704.000      0.8092554    
   6704.900      0.8095018    
   6705.800      0.8071832    
   6706.700      0.8069601    
   6707.600      0.8093128    
   6708.500      0.8113517    
   6709.400      0.8125495    
   6710.300      0.8091668    
   6711.200      0.8054723    
   6712.100      0.8093975    
   6713.000      0.8114731    
   6713.900      0.8065706    
   6714.800      0.8008190    
   6715.700      0.7944153    
   6716.600      0.7845660    
   6717.500      0.7776149    
   6718.400      0.7799922    
   6719.300      0.7882326    
   6720.200      0.7939433    
   6721.100      0.7966854    
   6722.000      0.7976242    
   6722.900      0.7983465    
   6723.800      0.8001392    
   6724.700      0.7994990    
   6725.600      0.7970487    
   6726.500      0.7952986    
   6727.400      0.7955300    
   6728.300      0.7990485    
   6729.200      0.8026250    
   6730.100      0.8016649    
   6731.000      0.8015085    
   6731.900      0.8054273    
   6732.800      0.8072296    
   6733.700      0.8057901    
   6734.600      0.8050246    
   6735.500      0.8077180    
   6736.400      0.8070726    
   6737.300      0.7996403    
   6738.200      0.7971469    
   6739.100      0.8023813    
   6740.000      0.8054463    
   6740.900      0.8042389    
   6741.800      0.8052070    
   6742.700      0.8071223    
   6743.600      0.8049765    
   6744.500      0.8015972    
   6745.400      0.7993011    
   6746.300      0.7965059    
   6747.200      0.7931623    
   6748.100      0.7912641    
   6749.000      0.7907267    
   6749.900      0.7894297    
   6750.800      0.7893099    
   6751.700      0.7937884    
   6752.600      0.7960623    
   6753.500      0.7939129    
   6754.400      0.7926877    
   6755.300      0.7908711    
   6756.200      0.7911879    
   6757.100      0.7937188    
   6758.000      0.7950160    
   6758.900      0.7972629    
   6759.800      0.7995815    
   6760.700      0.7967683    
   6761.600      0.7924416    
   6762.500      0.7922355    
   6763.400      0.7966454    
   6764.300      0.7999001    
   6765.200      0.7984967    
   6766.100      0.7937590    
   6767.000      0.7891898    
   6767.900      0.7885413    
   6768.800      0.7935985    
   6769.700      0.7979994    
   6770.600      0.7974891    
   6771.500      0.7972819    
   6772.400      0.8033959    
   6773.300      0.8136933    
   6774.200      0.8152507    
   6775.100      0.8093202    
   6776.000      0.8044769    
   6776.900      0.8042846    
   6777.800      0.8054791    
   6778.700      0.8062039    
   6779.600      0.8061933    
   6780.500      0.8053882    
   6781.400      0.8053671    
   6782.300      0.8043605    
   6783.200      0.8011797    
   6784.100      0.7961578    
   6785.000      0.7910717    
   6785.900      0.7906314    
   6786.800      0.7931106    
   6787.700      0.7955020    
   6788.600      0.7972255    
   6789.500      0.7953165    
   6790.400      0.7927496    
   6791.300      0.7912188    
   6792.200      0.7900249    
   6793.100      0.7918137    
   6794.000      0.7967529    
   6794.900      0.8009285    
   6795.800      0.8002633    
   6796.700      0.7980285    
   6797.600      0.8003982    
   6798.500      0.7987803    
   6799.400      0.7919840    
   6800.300      0.7904020    
   6801.200      0.7935330    
   6802.100      0.7963872    
   6803.000      0.7963477    
   6803.900      0.7942667    
   6804.800      0.7927190    
   6805.700      0.7917184    
   6806.600      0.7916842    
   6807.500      0.7916661    
   6808.400      0.7912421    
   6809.300      0.7897900    
   6810.200      0.7876889    
   6811.100      0.7873297    
   6812.000      0.7863724    
   6812.900      0.7843150    
   6813.800      0.7829843    
   6814.700      0.7803494    
   6815.600      0.7808781    
   6816.500      0.7846104    
   6817.400      0.7853437    
   6818.300      0.7814613    
   6819.200      0.7798114    
   6820.100      0.7842134    
   6821.000      0.7912715    
   6821.900      0.7953554    
   6822.800      0.7966204    
   6823.700      0.7965026    
   6824.600      0.7948299    
   6825.500      0.7930865    
   6826.400      0.7933044    
   6827.300      0.7947565    
   6828.200      0.7933498    
   6829.100      0.7927070    
   6830.000      0.7942360    
   6830.900      0.7932016    
   6831.800      0.7884349    
   6832.700      0.7854753    
   6833.600      0.7888241    
   6834.500      0.7908977    
   6835.400      0.7871857    
   6836.300      0.7861248    
   6837.200      0.7853158    
   6838.100      0.7810570    
   6839.000      0.7770523    
   6839.900      0.7707179    
   6840.800      0.7631767    
   6841.700      0.7616979    
   6842.600      0.7639078    
   6843.500      0.7665478    
   6844.400      0.7708562    
   6845.300      0.7759287    
   6846.200      0.7830130    
   6847.100      0.7906463    
   6848.000      0.7942061    
   6848.900      0.7937322    
   6849.800      0.7888259    
   6850.700      0.7849261    
   6851.600      0.7861388    
   6852.500      0.7885521    
   6853.400      0.7874364    
   6854.300      0.7816690    
   6855.200      0.7765896    
   6856.100      0.7803333    
   6857.000      0.7870374    
   6857.900      0.7879429    
   6858.800      0.7861750    
   6859.700      0.7846355    
   6860.600      0.7839714    
   6861.500      0.7855866    
   6862.400      0.7871054    
   6863.300      0.7857233    
   6864.200      0.7870234    
   6865.100      0.7929397    
   6866.000      0.7936040    
   6866.900      0.7893844    
   6867.800      0.7828514    
   6868.700      0.7727242    
   6869.600      0.7688026    
   6870.500      0.7822886    
   6871.400      0.7938477    
   6872.300      0.7884338    
   6873.200      0.7821993    
   6874.100      0.7793042    
   6875.000      0.7723656    
   6875.900      0.7650484    
   6876.800      0.7657446    
   6877.700      0.7729216    
   6878.600      0.7774510    
   6879.500      0.7773861    
   6880.400      0.7749320    
   6881.300      0.7760203    
   6882.200      0.7824050    
   6883.100      0.7835944    
   6884.000      0.7774917    
   6884.900      0.7730148    
   6885.800      0.7720023    
   6886.700      0.7723958    
   6887.600      0.7735240    
   6888.500      0.7796237    
   6889.400      0.7845697    
   6890.300      0.7787396    
   6891.200      0.7751339    
   6892.100      0.7829668    
   6893.000      0.7862366    
   6893.900      0.7780874    
   6894.800      0.7746080    
   6895.700      0.7827965    
   6896.600      0.7854424    
   6897.500      0.7749836    
   6898.400      0.7695038    
   6899.300      0.7754394    
   6900.200      0.7754796    
   6901.100      0.7663351    
   6902.000      0.7611029    
   6902.900      0.7687789    
   6903.800      0.7735561    
   6904.700      0.7623714    
   6905.600      0.7531651    
   6906.500      0.7582412    
   6907.400      0.7705219    
   6908.300      0.7755861    
   6909.200      0.7703611    
   6910.100      0.7660379    
   6911.000      0.7697935    
   6911.900      0.7790626    
   6912.800      0.7820057    
   6913.700      0.7729993    
   6914.600      0.7603741    
   6915.500      0.7552435    
   6916.400      0.7598529    
   6917.300      0.7650693    
   6918.200      0.7694707    
   6919.100      0.7747695    
   6920.000      0.7774156    
   6920.900      0.7800366    
   6921.800      0.7807066    
   6922.700      0.7761015    
   6923.600      0.7705135    
   6924.500      0.7643516    
   6925.400      0.7625521    
   6926.300      0.7687780    
   6927.200      0.7756781    
   6928.100      0.7762824    
   6929.000      0.7724907    
   6929.900      0.7708083    
   6930.800      0.7696767    
   6931.700      0.7673155    
   6932.600      0.7637850    
   6933.500      0.7597830    
   6934.400      0.7590583    
   6935.300      0.7596351    
   6936.200      0.7603651    
   6937.100      0.7632690    
   6938.000      0.7642995    
   6938.900      0.7639552    
   6939.800      0.7662807    
   6940.700      0.7694375    
   6941.600      0.7681964    
   6942.500      0.7659516    
   6943.400      0.7687908    
   6944.300      0.7713563    
   6945.200      0.7699485    
   6946.100      0.7698189    
   6947.000      0.7749987    
   6947.900      0.7799272    
   6948.800      0.7825408    
   6949.700      0.7824631    
   6950.600      0.7773898    
   6951.500      0.7726874    
   6952.400      0.7732409    
   6953.300      0.7712015    
   6954.200      0.7662499    
   6955.100      0.7658139    
   6956.000      0.7667351    
   6956.900      0.7691689    
   6957.800      0.7758681    
   6958.700      0.7800766    
   6959.600      0.7787535    
   6960.500      0.7747698    
   6961.400      0.7728549    
   6962.300      0.7739864    
   6963.200      0.7760301    
   6964.100      0.7772496    
   6965.000      0.7721093    
   6965.900      0.7660000    
   6966.800      0.7657744    
   6967.700      0.7663246    
   6968.600      0.7687373    
   6969.500      0.7727372    
   6970.400      0.7718241    
   6971.300      0.7709101    
   6972.200      0.7718846    
   6973.100      0.7695848    
   6974.000      0.7649158    
   6974.900      0.7618977    
   6975.800      0.7602722    
   6976.700      0.7537784    
   6977.600      0.7472610    
   6978.500      0.7426963    
   6979.400      0.7404374    
   6980.300      0.7502794    
   6981.200      0.7631561    
   6982.100      0.7636777    
   6983.000      0.7574905    
   6983.900      0.7555429    
   6984.800      0.7574967    
   6985.700      0.7576802    
   6986.600      0.7571259    
   6987.500      0.7585363    
   6988.400      0.7601513    
   6989.300      0.7607846    
   6990.200      0.7603178    
   6991.100      0.7636091    
   6992.000      0.7687011    
   6992.900      0.7686426    
   6993.800      0.7655796    
   6994.700      0.7648052    
   6995.600      0.7676980    
   6996.500      0.7681338    
   6997.400      0.7650845    
   6998.300      0.7605295    
   6999.200      0.7567585    
   7000.100      0.7581947    
   7001.000      0.7635774    
   7001.900      0.7706974    
   7002.800      0.7718555    
   7003.700      0.7637439    
   7004.600      0.7548974    
   7005.500      0.7512085    
   7006.400      0.7570981    
   7007.300      0.7674479    
   7008.200      0.7774969    
   7009.100      0.7813066    
   7010.000      0.7738327    
   7010.900      0.7662271    
   7011.800      0.7647291    
   7012.700      0.7627773    
   7013.600      0.7613035    
   7014.500      0.7602698    
   7015.400      0.7526712    
   7016.300      0.7403398    
   7017.200      0.7404109    
   7018.100      0.7539417    
   7019.000      0.7608466    
   7019.900      0.7582120    
   7020.800      0.7571786    
   7021.700      0.7585882    
   7022.600      0.7546296    
   7023.500      0.7471341    
   7024.400      0.7433133    
   7025.300      0.7471560    
   7026.200      0.7557514    
   7027.100      0.7609366    
   7028.000      0.7600980    
   7028.900      0.7603778    
   7029.800      0.7633417    
   7030.700      0.7647675    
   7031.600      0.7675390    
   7032.500      0.7707778    
   7033.400      0.7680427    
   7034.300      0.7590735    
   7035.200      0.7551863    
   7036.100      0.7613575    
   7037.000      0.7646549    
   7037.900      0.7596915    
   7038.800      0.7566218    
   7039.700      0.7641131    
   7040.600      0.7698637    
   7041.500      0.7665353    
   7042.400      0.7635378    
   7043.300      0.7614850    
   7044.200      0.7581982    
   7045.100      0.7588540    
   7046.000      0.7586718    
   7046.900      0.7548769    
   7047.800      0.7547411    
   7048.700      0.7578866    
   7049.600      0.7589790    
   7050.500      0.7583033    
   7051.400      0.7574623    
   7052.300      0.7541294    
   7053.200      0.7518018    
   7054.100      0.7526202    
   7055.000      0.7522802    
   7055.900      0.7537428    
   7056.800      0.7601212    
   7057.700      0.7655159    
   7058.600      0.7637193    
   7059.500      0.7556672    
   7060.400      0.7504783    
   7061.300      0.7530264    
   7062.200      0.7567748    
   7063.100      0.7573355    
   7064.000      0.7570833    
   7064.900      0.7625341    
   7065.800      0.7716115    
   7066.700      0.7748502    
   7067.600      0.7717332    
   7068.500      0.7624326    
   7069.400      0.7567965    
   7070.300      0.7588053    
   7071.200      0.7573875    
   7072.100      0.7548865    
   7073.000      0.7579585    
   7073.900      0.7612947    
   7074.800      0.7620152    
   7075.700      0.7611080    
   7076.600      0.7579128    
   7077.500      0.7556019    
   7078.400      0.7573365    
   7079.300      0.7586746    
   7080.200      0.7546470    
   7081.100      0.7519037    
   7082.000      0.7524701    
   7082.900      0.7484732    
   7083.800      0.7387071    
   7084.700      0.7335847    
   7085.600      0.7358338    
   7086.500      0.7352713    
   7087.400      0.7342094    
   7088.300      0.7393587    
   7089.200      0.7406278    
   7090.100      0.7318220    
   7091.000      0.7250131    
   7091.900      0.7296700    
   7092.800      0.7361288    
   7093.700      0.7405252    
   7094.600      0.7437235    
   7095.500      0.7410473    
   7096.400      0.7410960    
   7097.300      0.7453185    
   7098.200      0.7449611    
   7099.100      0.7460735    
   7100.000      0.7488497    
   7100.900      0.7487188    
   7101.800      0.7474280    
   7102.700      0.7468312    
   7103.600      0.7495719    
   7104.500      0.7569823    
   7105.400      0.7615835    
   7106.300      0.7574658    
   7107.200      0.7511351    
   7108.100      0.7502498    
   7109.000      0.7505445    
   7109.900      0.7490628    
   7110.800      0.7473981    
   7111.700      0.7471467    
   7112.600      0.7467878    
   7113.500      0.7443236    
   7114.400      0.7436628    
   7115.300      0.7480068    
   7116.200      0.7514307    
   7117.100      0.7514791    
   7118.000      0.7489132    
   7118.900      0.7448778    
   7119.800      0.7400481    
   7120.700      0.7365300    
   7121.600      0.7346284    
   7122.500      0.7333963    
   7123.400      0.7348126    
   7124.300      0.7371449    
   7125.200      0.7370012    
   7126.100      0.7351856    
   7127.000      0.7316189    
   7127.900      0.7302493    
   7128.800      0.7347386    
   7129.700      0.7319443    
   7130.600      0.7226596    
   7131.500      0.7178733    
   7132.400      0.7208894    
   7133.300      0.7262988    
   7134.200      0.7311502    
   7135.100      0.7359847    
   7136.000      0.7408920    
   7136.900      0.7446672    
   7137.800      0.7432710    
   7138.700      0.7396753    
   7139.600      0.7389714    
   7140.500      0.7395060    
   7141.400      0.7392111    
   7142.300      0.7375333    
   7143.200      0.7364517    
   7144.100      0.7377901    
   7145.000      0.7378610    
   7145.900      0.7340528    
   7146.800      0.7246590    
   7147.700      0.7104303    
   7148.600      0.7084696    
   7149.500      0.7249366    
   7150.400      0.7363208    
   7151.300      0.7358952    
   7152.200      0.7351224    
   7153.100      0.7386608    
   7154.000      0.7437717    
   7154.900      0.7420412    
   7155.800      0.7373281    
   7156.700      0.7371445    
   7157.600      0.7403092    
   7158.500      0.7421343    
   7159.400      0.7398710    
   7160.300      0.7389790    
   7161.200      0.7403507    
   7162.100      0.7397724    
   7163.000      0.7370471    
   7163.900      0.7295122    
   7164.800      0.7199687    
   7165.700      0.7195163    
   7166.600      0.7317081    
   7167.500      0.7479020    
   7168.400      0.7581019    
   7169.300      0.7568321    
   7170.200      0.7524148    
   7171.100      0.7536182    
   7172.000      0.7582644    
   7172.900      0.7620322    
   7173.800      0.7619275    
   7174.700      0.7559695    
   7175.600      0.7500380    
   7176.500      0.7488744    
   7177.400      0.7494138    
   7178.300      0.7480012    
   7179.200      0.7459146    
   7180.100      0.7423192    
   7181.000      0.7371866    
   7181.900      0.7337959    
   7182.800      0.7349126    
   7183.700      0.7388971    
   7184.600      0.7431766    
   7185.500      0.7389266    
   7186.400      0.7184983    
   7187.300      0.7001147    
   7188.200      0.7007452    
   7189.100      0.7111862    
   7190.000      0.7175773    
   7190.900      0.7229300    
   7191.800      0.7314497    
   7192.700      0.7311695    
   7193.600      0.7234628    
   7194.500      0.7265447    
   7195.400      0.7319484    
   7196.300      0.7282301    
   7197.200      0.7216766    
   7198.100      0.7230950    
   7199.000      0.7248065    
   7199.900      0.7190470    
   7200.800      0.7159020    
   7201.700      0.7115728    
   7202.600      0.7024848    
   7203.500      0.7064206    
   7204.400      0.7234058    
   7205.300      0.7238287    
   7206.200      0.7028826    
   7207.100      0.6859770    
   7208.000      0.6818985    
   7208.900      0.6899570    
   7209.800      0.7038432    
   7210.700      0.7117373    
   7211.600      0.7097145    
   7212.500      0.7046965    
   7213.400      0.7050931    
   7214.300      0.7052298    
   7215.200      0.7048343    
   7216.100      0.7078353    
   7217.000      0.7114854    
   7217.900      0.7092785    
   7218.800      0.7039583    
   7219.700      0.7052991    
   7220.600      0.7103636    
   7221.500      0.7107456    
   7222.400      0.7079801    
   7223.300      0.7053741    
   7224.200      0.7060174    
   7225.100      0.7061382    
   7226.000      0.7046332    
   7226.900      0.7089109    
   7227.800      0.7175792    
   7228.700      0.7206296    
   7229.600      0.7182876    
   7230.500      0.7209248    
   7231.400      0.7282179    
   7232.300      0.7348927    
   7233.200      0.7378513    
   7234.100      0.7328901    
   7235.000      0.7274076    
   7235.900      0.7275209    
   7236.800      0.7275993    
   7237.700      0.7234715    
   7238.600      0.7217762    
   7239.500      0.7214377    
   7240.400      0.7208829    
   7241.300      0.7248101    
   7242.200      0.7276785    
   7243.100      0.7301943    
   7244.000      0.7341450    
   7244.900      0.7339864    
   7245.800      0.7293435    
   7246.700      0.7291850    
   7247.600      0.7333882    
   7248.500      0.7322649    
   7249.400      0.7250876    
   7250.300      0.7180290    
   7251.200      0.7181568    
   7252.100      0.7221149    
   7253.000      0.7271411    
   7253.900      0.7257662    
   7254.800      0.7161372    
   7255.700      0.7109235    
   7256.600      0.7159185    
   7257.500      0.7240187    
   7258.400      0.7283787    
   7259.300      0.7262577    
   7260.200      0.7191097    
   7261.100      0.7077649    
   7262.000      0.7009261    
   7262.900      0.7043813    
   7263.800      0.7123138    
   7264.700      0.7209190    
   7265.600      0.7287002    
   7266.500      0.7280819    
   7267.400      0.7202105    
   7268.300      0.7192407    
   7269.200      0.7260014    
   7270.100      0.7342355    
   7271.000      0.7392769    
   7271.900      0.7395980    
   7272.800      0.7400104    
   7273.700      0.7389718    
   7274.600      0.7299252    
   7275.500      0.7218528    
   7276.400      0.7242454    
   7277.300      0.7319571    
   7278.200      0.7369079    
   7279.100      0.7305930    
   7280.000      0.7178971    
   7280.900      0.7055691    
   7281.800      0.6987087    
   7282.700      0.6982867    
   7283.600      0.6984813    
   7284.500      0.6988627    
   7285.400      0.7017523    
   7286.300      0.7067775    
   7287.200      0.7074680    
   7288.100      0.6956472    
   7289.000      0.6746231    
   7289.900      0.6694559    
   7290.800      0.6818851    
   7291.700      0.6857468    
   7292.600      0.6812137    
   7293.500      0.6853973    
   7294.400      0.6969533    
   7295.300      0.7052262    
   7296.200      0.7090957    
   7297.100      0.7073312    
   7298.000      0.7048790    
   7298.900      0.7064467    
   7299.800      0.7088379    
   7300.700      0.7093038    
   7301.600      0.7091094    
   7302.500      0.7127975    
   7303.400      0.7217341    
   7304.300      0.7234311    
   7305.200      0.7148144    
   7306.100      0.7094033    
   7307.000      0.7074986    
   7307.900      0.7098832    
   7308.800      0.7164061    
   7309.700      0.7195106    
   7310.600      0.7157036    
   7311.500      0.7158030    
   7312.400      0.7217753    
   7313.300      0.7248939    
   7314.200      0.7251653    
   7315.100      0.7255851    
   7316.000      0.7256343    
   7316.900      0.7232358    
   7317.800      0.7265161    
   7318.700      0.7334768    
   7319.600      0.7341131    
   7320.500      0.7272784    
   7321.400      0.7228121    
   7322.300      0.7220341    
   7323.200      0.7214191    
   7324.100      0.7203913    
   7325.000      0.7154967    
   7325.900      0.7086069    
   7326.800      0.7093410    
   7327.700      0.7173163    
   7328.600      0.7211756    
   7329.500      0.7194209    
   7330.400      0.7150615    
   7331.300      0.7133110    
   7332.200      0.7174439    
   7333.100      0.7243081    
   7334.000      0.7278330    
   7334.900      0.7301208    
   7335.800      0.7298545    
   7336.700      0.7276010    
   7337.600      0.7279261    
   7338.500      0.7272430    
   7339.400      0.7238636    
   7340.300      0.7237618    
   7341.200      0.7259450    
   7342.100      0.7250990    
   7343.000      0.7227160    
   7343.900      0.7220998    
   7344.800      0.7277991    
   7345.700      0.7341902    
   7346.600      0.7355842    
   7347.500      0.7315953    
   7348.400      0.7283180    
   7349.300      0.7260358    
   7350.200      0.7210782    
   7351.100      0.7170586    
   7352.000      0.7175314    
   7352.900      0.7188548    
   7353.800      0.7199956    
   7354.700      0.7142358    
   7355.600      0.7045744    
   7356.500      0.7033877    
   7357.400      0.7067017    
   7358.300      0.7045086    
   7359.200      0.7001493    
   7360.100      0.6985220    
   7361.000      0.6975564    
   7361.900      0.7011588    
   7362.800      0.7085988    
   7363.700      0.7145979    
   7364.600      0.7177688    
   7365.500      0.7200225    
   7366.400      0.7226964    
   7367.300      0.7248291    
   7368.200      0.7217333    
   7369.100      0.7187095    
   7370.000      0.7161972    
   7370.900      0.7152526    
   7371.800      0.7166879    
   7372.700      0.7172517    
   7373.600      0.7143011    
   7374.500      0.7103841    
   7375.400      0.7080768    
   7376.300      0.7112504    
   7377.200      0.7154430    
   7378.100      0.7160993    
   7379.000      0.7079030    
   7379.900      0.7006437    
   7380.800      0.7011903    
   7381.700      0.6987333    
   7382.600      0.6878465    
   7383.500      0.6790814    
   7384.400      0.6719518    
   7385.300      0.6637994    
   7386.200      0.6535831    
   7387.100      0.6435434    
   7388.000      0.6362829    
   7388.900      0.6367806    
   7389.800      0.6442116    
   7390.700      0.6564424    
   7391.600      0.6640469    
   7392.500      0.6589918    
   7393.400      0.6493458    
   7394.300      0.6482322    
   7395.200      0.6552020    
   7396.100      0.6618103    
   7397.000      0.6639991    
   7397.900      0.6705214    
   7398.800      0.6728328    
   7399.700      0.6718628    
   7400.600      0.6710606    
   7401.500      0.6726752    
   7402.400      0.6764770    
   7403.300      0.6829402    
   7404.200      0.6860325    
   7405.100      0.6841536    
   7406.000      0.6772903    
   7406.900      0.6735466    
   7407.800      0.6738994    
   7408.700      0.6731713    
   7409.600      0.6692819    
