   Wavelength  Flux
   3540.500      0.8402635    
   3541.400      0.8336623    
   3542.300      0.8247070    
   3543.200      0.8181286    
   3544.100      0.8218390    
   3545.000      0.8312125    
   3545.900      0.8385115    
   3546.800      0.8426771    
   3547.700      0.8469001    
   3548.600      0.8470014    
   3549.500      0.8476858    
   3550.400      0.8486916    
   3551.300      0.8493988    
   3552.200      0.8521010    
   3553.100      0.8515589    
   3554.000      0.8510309    
   3554.900      0.8551117    
   3555.800      0.8583200    
   3556.700      0.8640074    
   3557.600      0.8688238    
   3558.500      0.8700584    
   3559.400      0.8694263    
   3560.300      0.8700540    
   3561.200      0.8685577    
   3562.100      0.8652343    
   3563.000      0.8626657    
   3563.900      0.8542326    
   3564.800      0.8459470    
   3565.700      0.8411843    
   3566.600      0.8436990    
   3567.500      0.8510795    
   3568.400      0.8531933    
   3569.300      0.8449526    
   3570.200      0.8399113    
   3571.100      0.8390744    
   3572.000      0.8395945    
   3572.900      0.8392790    
   3573.800      0.8473370    
   3574.700      0.8595448    
   3575.600      0.8632216    
   3576.500      0.8615941    
   3577.400      0.8604835    
   3578.300      0.8605400    
   3579.200      0.8537774    
   3580.100      0.8398007    
   3581.000      0.8286195    
   3581.900      0.8272265    
   3582.800      0.8308721    
   3583.700      0.8273413    
   3584.600      0.8226017    
   3585.500      0.8197629    
   3586.400      0.8238412    
   3587.300      0.8416497    
   3588.200      0.8598562    
   3589.100      0.8670287    
   3590.000      0.8631129    
   3590.900      0.8585409    
   3591.800      0.8530192    
   3592.700      0.8458580    
   3593.600      0.8509957    
   3594.500      0.8592339    
   3595.400      0.8565179    
   3596.300      0.8550578    
   3597.200      0.8540334    
   3598.100      0.8532357    
   3599.000      0.8477203    
   3599.900      0.8400220    
   3600.800      0.8371772    
   3601.700      0.8341923    
   3602.600      0.8287864    
   3603.500      0.8336910    
   3604.400      0.8406694    
   3605.300      0.8347767    
   3606.200      0.8323784    
   3607.100      0.8336018    
   3608.000      0.8292030    
   3608.900      0.8234212    
   3609.800      0.8214640    
   3610.700      0.8276595    
   3611.600      0.8298472    
   3612.500      0.8208417    
   3613.400      0.8168294    
   3614.300      0.8327091    
   3615.200      0.8472965    
   3616.100      0.8363745    
   3617.000      0.8200515    
   3617.900      0.8074176    
   3618.800      0.8020555    
   3619.700      0.8066005    
   3620.600      0.8191671    
   3621.500      0.8335162    
   3622.400      0.8380924    
   3623.300      0.8364842    
   3624.200      0.8400912    
   3625.100      0.8512591    
   3626.000      0.8564278    
   3626.900      0.8541684    
   3627.800      0.8532556    
   3628.700      0.8519287    
   3629.600      0.8445401    
   3630.500      0.8325349    
   3631.400      0.8286838    
   3632.300      0.8380308    
   3633.200      0.8491275    
   3634.100      0.8550497    
   3635.000      0.8588344    
   3635.900      0.8569142    
   3636.800      0.8468896    
   3637.700      0.8374352    
   3638.600      0.8367383    
   3639.500      0.8401741    
   3640.400      0.8347599    
   3641.300      0.8266606    
   3642.200      0.8269868    
   3643.100      0.8348402    
   3644.000      0.8399199    
   3644.900      0.8359659    
   3645.800      0.8350161    
   3646.700      0.8366682    
   3647.600      0.8340500    
   3648.500      0.8369982    
   3649.400      0.8428811    
   3650.300      0.8445868    
   3651.200      0.8461677    
   3652.100      0.8532180    
   3653.000      0.8562875    
   3653.900      0.8550028    
   3654.800      0.8557277    
   3655.700      0.8573450    
   3656.600      0.8608587    
   3657.500      0.8619519    
   3658.400      0.8535835    
   3659.300      0.8410763    
   3660.200      0.8362805    
   3661.100      0.8425875    
   3662.000      0.8478478    
   3662.900      0.8445041    
   3663.800      0.8393141    
   3664.700      0.8420502    
   3665.600      0.8455561    
   3666.500      0.8448185    
   3667.400      0.8425794    
   3668.300      0.8469516    
   3669.200      0.8498607    
   3670.100      0.8522552    
   3671.000      0.8556357    
   3671.900      0.8550902    
   3672.800      0.8600440    
   3673.700      0.8618687    
   3674.600      0.8533106    
   3675.500      0.8460336    
   3676.400      0.8370026    
   3677.300      0.8277041    
   3678.200      0.8287570    
   3679.100      0.8363650    
   3680.000      0.8422775    
   3680.900      0.8395976    
   3681.800      0.8328334    
   3682.700      0.8327563    
   3683.600      0.8314431    
   3684.500      0.8184510    
   3685.400      0.8037927    
   3686.300      0.8021027    
   3687.200      0.8181713    
   3688.100      0.8505532    
   3689.000      0.8688594    
   3689.900      0.8521966    
   3690.800      0.8222899    
   3691.700      0.8206984    
   3692.600      0.8560110    
   3693.500      0.8930491    
   3694.400      0.9014800    
   3695.300      0.8702235    
   3696.200      0.8176216    
   3697.100      0.7882859    
   3698.000      0.8164174    
   3698.900      0.8851032    
   3699.800      0.9404739    
   3700.700      0.9466121    
   3701.600      0.8988258    
   3702.500      0.8197014    
   3703.400      0.7630118    
   3704.300      0.7585296    
   3705.200      0.8003538    
   3706.100      0.8789078    
   3707.000      0.9560592    
   3707.900      0.9807611    
   3708.800      0.9423004    
   3709.700      0.8631080    
   3710.600      0.7698742    
   3711.500      0.7037913    
   3712.400      0.7161146    
   3713.300      0.8080408    
   3714.200      0.9245834    
   3715.100       1.017688    
   3716.000       1.065591    
   3716.900       1.072608    
   3717.800       1.043751    
   3718.700      0.9665251    
   3719.600      0.8511650    
   3720.500      0.7315400    
   3721.400      0.6499030    
   3722.300      0.6550332    
   3723.200      0.7514542    
   3724.100      0.8808306    
   3725.000      0.9888585    
   3725.900       1.061490    
   3726.800       1.100489    
   3727.700       1.119997    
   3728.600       1.129844    
   3729.500       1.110350    
   3730.400       1.052462    
   3731.300      0.9624654    
   3732.200      0.8427786    
   3733.100      0.7132013    
   3734.000      0.6308500    
   3734.900      0.6357601    
   3735.800      0.7040069    
   3736.700      0.8098176    
   3737.600      0.9483044    
   3738.500       1.088622    
   3739.400       1.188421    
   3740.300       1.234739    
   3741.200       1.244009    
   3742.100       1.230519    
   3743.000       1.211964    
   3743.900       1.179366    
   3744.800       1.116546    
   3745.700       1.041076    
   3746.600      0.9670993    
   3747.500      0.8683771    
   3748.400      0.7357940    
   3749.300      0.6126750    
   3750.200      0.5768674    
   3751.100      0.6495404    
   3752.000      0.7782465    
   3752.900      0.9187444    
   3753.800       1.044578    
   3754.700       1.136272    
   3755.600       1.202162    
   3756.500       1.243825    
   3757.400       1.245097    
   3758.300       1.231921    
   3759.200       1.245015    
   3760.100       1.274216    
   3761.000       1.295583    
   3761.900       1.310496    
   3762.800       1.311301    
   3763.700       1.285814    
   3764.600       1.241612    
   3765.500       1.183734    
   3766.400       1.105507    
   3767.300       1.006370    
   3768.200      0.8813891    
   3769.100      0.7443430    
   3770.000      0.6409493    
   3770.900      0.6241606    
   3771.800      0.7038916    
   3772.700      0.8303794    
   3773.600      0.9556617    
   3774.500       1.065063    
   3775.400       1.158593    
   3776.300       1.241824    
   3777.200       1.312393    
   3778.100       1.368300    
   3779.000       1.417302    
   3779.900       1.463533    
   3780.800       1.501538    
   3781.700       1.520418    
   3782.600       1.524812    
   3783.500       1.529120    
   3784.400       1.534785    
   3785.300       1.532090    
   3786.200       1.511885    
   3787.100       1.472644    
   3788.000       1.433039    
   3788.900       1.403017    
   3789.800       1.371336    
   3790.700       1.324937    
   3791.600       1.262406    
   3792.500       1.191788    
   3793.400       1.106131    
   3794.300       1.001606    
   3795.200      0.8855708    
   3796.100      0.7573496    
   3797.000      0.6395992    
   3797.900      0.5910485    
   3798.800      0.6487581    
   3799.700      0.7797002    
   3800.600      0.9204949    
   3801.500       1.039858    
   3802.400       1.138284    
   3803.300       1.227229    
   3804.200       1.308584    
   3805.100       1.377890    
   3806.000       1.441457    
   3806.900       1.503213    
   3807.800       1.563302    
   3808.700       1.620404    
   3809.600       1.668683    
   3810.500       1.702711    
   3811.400       1.725409    
   3812.300       1.741228    
   3813.200       1.750333    
   3814.100       1.752954    
   3815.000       1.752542    
   3815.900       1.757882    
   3816.800       1.778069    
   3817.700       1.804454    
   3818.600       1.795181    
   3819.500       1.735641    
   3820.400       1.682643    
   3821.300       1.674849    
   3822.200       1.678427    
   3823.100       1.646649    
   3824.000       1.583986    
   3824.900       1.514244    
   3825.800       1.456008    
   3826.700       1.406358    
   3827.600       1.341051    
   3828.500       1.261284    
   3829.400       1.195607    
   3830.300       1.135729    
   3831.200       1.048895    
   3832.100      0.9367393    
   3833.000      0.8141648    
   3833.900      0.6896552    
   3834.800      0.5973551    
   3835.700      0.5884199    
   3836.600      0.6647372    
   3837.500      0.7770696    
   3838.400      0.8925116    
   3839.300       1.002378    
   3840.200       1.095588    
   3841.100       1.180913    
   3842.000       1.273688    
   3842.900       1.362698    
   3843.800       1.434614    
   3844.700       1.492446    
   3845.600       1.546000    
   3846.500       1.599816    
   3847.400       1.652804    
   3848.300       1.694106    
   3849.200       1.719833    
   3850.100       1.750820    
   3851.000       1.796708    
   3851.900       1.838544    
   3852.800       1.867631    
   3853.700       1.888593    
   3854.600       1.894461    
   3855.500       1.886194    
   3856.400       1.891645    
   3857.300       1.915140    
   3858.200       1.919545    
   3859.100       1.898980    
   3860.000       1.896598    
   3860.900       1.930849    
   3861.800       1.966323    
   3862.700       1.976650    
   3863.600       1.971614    
   3864.500       1.958668    
   3865.400       1.941555    
   3866.300       1.938860    
   3867.200       1.947161    
   3868.100       1.947962    
   3869.000       1.933836    
   3869.900       1.908862    
   3870.800       1.875710    
   3871.700       1.834323    
   3872.600       1.801907    
   3873.500       1.785910    
   3874.400       1.769389    
   3875.300       1.745067    
   3876.200       1.706448    
   3877.100       1.639475    
   3878.000       1.569037    
   3878.900       1.528342    
   3879.800       1.504225    
   3880.700       1.467186    
   3881.600       1.412283    
   3882.500       1.345975    
   3883.400       1.266753    
   3884.300       1.173408    
   3885.200       1.065349    
   3886.100      0.9465563    
   3887.000      0.8195038    
   3887.900      0.6916548    
   3888.800      0.6152745    
   3889.700      0.6452186    
   3890.600      0.7621753    
   3891.500      0.8978600    
   3892.400       1.017861    
   3893.300       1.123743    
   3894.200       1.208830    
   3895.100       1.278082    
   3896.000       1.344153    
   3896.900       1.404947    
   3897.800       1.451799    
   3898.700       1.478465    
   3899.600       1.498757    
   3900.500       1.541478    
   3901.400       1.601449    
   3902.300       1.650452    
   3903.200       1.684082    
   3904.100       1.711106    
   3905.000       1.734239    
   3905.900       1.763528    
   3906.800       1.810456    
   3907.700       1.859599    
   3908.600       1.884082    
   3909.500       1.890709    
   3910.400       1.907119    
   3911.300       1.921855    
   3912.200       1.912481    
   3913.100       1.898950    
   3914.000       1.907932    
   3914.900       1.932744    
   3915.800       1.953424    
   3916.700       1.965833    
   3917.600       1.968126    
   3918.500       1.960375    
   3919.400       1.954921    
   3920.300       1.959040    
   3921.200       1.970642    
   3922.100       1.982415    
   3923.000       1.986049    
   3923.900       1.993195    
   3924.800       2.007021    
   3925.700       2.011829    
   3926.600       2.004837    
   3927.500       1.994705    
   3928.400       1.985984    
   3929.300       1.977507    
   3930.200       1.965493    
   3931.100       1.897298    
   3932.000       1.686571    
   3932.900       1.409288    
   3933.800       1.325109    
   3934.700       1.531919    
   3935.600       1.828834    
   3936.500       2.012824    
   3937.400       2.074864    
   3938.300       2.093629    
   3939.200       2.106424    
   3940.100       2.114108    
   3941.000       2.104842    
   3941.900       2.078431    
   3942.800       2.044116    
   3943.700       2.012560    
   3944.600       2.008833    
   3945.500       2.027619    
   3946.400       2.034204    
   3947.300       2.016591    
   3948.200       1.991980    
   3949.100       1.973324    
   3950.000       1.957236    
   3950.900       1.936264    
   3951.800       1.913104    
   3952.700       1.889306    
   3953.600       1.865556    
   3954.500       1.837651    
   3955.400       1.800223    
   3956.300       1.752328    
   3957.200       1.706304    
   3958.100       1.668228    
   3959.000       1.622647    
   3959.900       1.562922    
   3960.800       1.496380    
   3961.700       1.436704    
   3962.600       1.389157    
   3963.500       1.335961    
   3964.400       1.265886    
   3965.300       1.176611    
   3966.200       1.055885    
   3967.100      0.8919047    
   3968.000      0.7134328    
   3968.900      0.5896751    
   3969.800      0.5631017    
   3970.700      0.6275628    
   3971.600      0.7508495    
   3972.500      0.8886825    
   3973.400       1.008637    
   3974.300       1.107606    
   3975.200       1.194604    
   3976.100       1.270155    
   3977.000       1.335344    
   3977.900       1.396814    
   3978.800       1.453931    
   3979.700       1.501666    
   3980.600       1.544484    
   3981.500       1.586977    
   3982.400       1.626274    
   3983.300       1.658901    
   3984.200       1.688606    
   3985.100       1.717127    
   3986.000       1.742745    
   3986.900       1.768618    
   3987.800       1.799150    
   3988.700       1.829534    
   3989.600       1.851431    
   3990.500       1.865715    
   3991.400       1.882590    
   3992.300       1.903515    
   3993.200       1.916814    
   3994.100       1.921819    
   3995.000       1.926583    
   3995.900       1.930672    
   3996.800       1.932775    
   3997.700       1.937913    
   3998.600       1.951228    
   3999.500       1.965195    
   4000.400       1.973885    
   4001.300       1.981419    
   4002.200       1.991411    
   4003.100       2.004539    
   4004.000       2.007763    
   4004.900       2.001557    
   4005.800       2.002843    
   4006.700       2.017269    
   4007.600       2.041334    
   4008.500       2.059690    
   4009.400       2.065370    
   4010.300       2.066639    
   4011.200       2.069155    
   4012.100       2.075595    
   4013.000       2.088130    
   4013.900       2.097685    
   4014.800       2.101449    
   4015.700       2.107130    
   4016.600       2.116006    
   4017.500       2.123852    
   4018.400       2.132842    
   4019.300       2.141394    
   4020.200       2.144157    
   4021.100       2.137829    
   4022.000       2.129868    
   4022.900       2.129791    
   4023.800       2.137551    
   4024.700       2.145870    
   4025.600       2.142611    
   4026.500       2.135766    
   4027.400       2.139940    
   4028.300       2.134896    
   4029.200       2.115478    
   4030.100       2.110507    
   4031.000       2.121866    
   4031.900       2.129887    
   4032.800       2.128430    
   4033.700       2.129221    
   4034.600       2.138831    
   4035.500       2.147992    
   4036.400       2.148338    
   4037.300       2.145661    
   4038.200       2.146369    
   4039.100       2.141337    
   4040.000       2.132855    
   4040.900       2.131254    
   4041.800       2.134103    
   4042.700       2.131866    
   4043.600       2.113900    
   4044.500       2.076104    
   4045.400       2.042881    
   4046.300       2.051151    
   4047.200       2.086823    
   4048.100       2.106246    
   4049.000       2.109309    
   4049.900       2.112363    
   4050.800       2.112678    
   4051.700       2.107856    
   4052.600       2.093172    
   4053.500       2.079916    
   4054.400       2.082446    
   4055.300       2.087573    
   4056.200       2.082770    
   4057.100       2.077235    
   4058.000       2.076427    
   4058.900       2.077239    
   4059.800       2.080926    
   4060.700       2.077285    
   4061.600       2.052586    
   4062.500       2.013051    
   4063.400       1.988381    
   4064.300       1.996373    
   4065.200       2.020686    
   4066.100       2.036053    
   4067.000       2.037349    
   4067.900       2.035990    
   4068.800       2.039401    
   4069.700       2.030880    
   4070.600       1.992969    
   4071.500       1.951106    
   4072.400       1.948023    
   4073.300       1.970542    
   4074.200       1.976338    
   4075.100       1.958156    
   4076.000       1.919502    
   4076.900       1.868720    
   4077.800       1.844023    
   4078.700       1.860102    
   4079.600       1.883256    
   4080.500       1.882428    
   4081.400       1.860810    
   4082.300       1.834192    
   4083.200       1.807459    
   4084.100       1.780659    
   4085.000       1.754847    
   4085.900       1.728882    
   4086.800       1.702301    
   4087.700       1.673310    
   4088.600       1.639361    
   4089.500       1.600051    
   4090.400       1.557204    
   4091.300       1.513387    
   4092.200       1.466121    
   4093.100       1.415898    
   4094.000       1.361886    
   4094.900       1.300565    
   4095.800       1.232291    
   4096.700       1.157162    
   4097.600       1.071240    
   4098.500      0.9736529    
   4099.400      0.8545011    
   4100.300      0.7202293    
   4101.200      0.6211240    
   4102.100      0.6187344    
   4103.000      0.7114422    
   4103.900      0.8426774    
   4104.800      0.9612538    
   4105.700       1.058738    
   4106.600       1.142959    
   4107.500       1.221081    
   4108.400       1.286556    
   4109.300       1.342798    
   4110.200       1.395591    
   4111.100       1.437762    
   4112.000       1.477938    
   4112.900       1.519474    
   4113.800       1.561814    
   4114.700       1.599078    
   4115.600       1.627612    
   4116.500       1.647919    
   4117.400       1.668117    
   4118.300       1.686365    
   4119.200       1.710802    
   4120.100       1.734300    
   4121.000       1.757778    
   4121.900       1.778758    
   4122.800       1.795555    
   4123.700       1.807198    
   4124.600       1.818194    
   4125.500       1.828713    
   4126.400       1.837939    
   4127.300       1.839196    
   4128.200       1.847711    
   4129.100       1.859047    
   4130.000       1.864791    
   4130.900       1.857898    
   4131.800       1.851169    
   4132.700       1.860307    
   4133.600       1.882275    
   4134.500       1.899058    
   4135.400       1.912208    
   4136.300       1.918301    
   4137.200       1.920659    
   4138.100       1.926819    
   4139.000       1.937433    
   4139.900       1.950615    
   4140.800       1.951316    
   4141.700       1.943148    
   4142.600       1.923765    
   4143.500       1.917209    
   4144.400       1.937990    
   4145.300       1.965761    
   4146.200       1.977706    
   4147.100       1.982720    
   4148.000       1.985169    
   4148.900       1.984636    
   4149.800       1.983351    
   4150.700       1.995515    
   4151.600       2.006725    
   4152.500       2.006100    
   4153.400       1.992946    
   4154.300       1.981265    
   4155.200       1.977907    
   4156.100       1.989370    
   4157.000       2.002661    
   4157.900       2.008933    
   4158.800       2.009823    
   4159.700       2.016491    
   4160.600       2.019281    
   4161.500       2.018888    
   4162.400       2.012188    
   4163.300       2.004869    
   4164.200       2.004834    
   4165.100       2.014922    
   4166.000       2.020525    
   4166.900       2.015042    
   4167.800       2.011477    
   4168.700       2.011901    
   4169.600       2.008755    
   4170.500       2.001804    
   4171.400       1.996617    
   4172.300       1.984613    
   4173.200       1.979728    
   4174.100       1.985540    
   4175.000       1.996763    
   4175.900       1.996318    
   4176.800       1.988692    
   4177.700       1.981187    
   4178.600       1.982767    
   4179.500       1.991636    
   4180.400       1.997698    
   4181.300       1.993860    
   4182.200       1.996074    
   4183.100       2.000306    
   4184.000       2.006586    
   4184.900       2.010984    
   4185.800       2.012170    
   4186.700       2.002309    
   4187.600       1.995983    
   4188.500       2.002212    
   4189.400       2.014239    
   4190.300       2.015110    
   4191.200       2.010562    
   4192.100       2.008616    
   4193.000       2.011808    
   4193.900       2.009972    
   4194.800       2.009246    
   4195.700       2.014218    
   4196.600       2.007854    
   4197.500       1.987780    
   4198.400       1.968996    
   4199.300       1.972429    
   4200.200       1.977141    
   4201.100       1.968907    
   4202.000       1.961369    
   4202.900       1.972232    
   4203.800       1.991739    
   4204.700       2.003988    
   4205.600       2.001846    
   4206.500       2.003529    
   4207.400       2.004205    
   4208.300       1.998955    
   4209.200       1.989076    
   4210.100       1.984782    
   4211.000       1.982794    
   4211.900       1.985627    
   4212.800       1.988023    
   4213.700       1.978548    
   4214.600       1.948717    
   4215.500       1.929094    
   4216.400       1.943037    
   4217.300       1.974280    
   4218.200       1.986267    
   4219.100       1.989376    
   4220.000       1.992317    
   4220.900       1.987463    
   4221.800       1.974997    
   4222.700       1.969070    
   4223.600       1.971581    
   4224.500       1.961977    
   4225.400       1.923961    
   4226.300       1.876022    
   4227.200       1.870463    
   4228.100       1.906948    
   4229.000       1.952005    
   4229.900       1.976289    
   4230.800       1.974921    
   4231.700       1.947520    
   4232.600       1.920575    
   4233.500       1.915480    
   4234.400       1.931326    
   4235.300       1.942773    
   4236.200       1.950024    
   4237.100       1.959266    
   4238.000       1.964260    
   4238.900       1.958286    
   4239.800       1.954655    
   4240.700       1.954017    
   4241.600       1.959903    
   4242.500       1.963288    
   4243.400       1.961756    
   4244.300       1.953830    
   4245.200       1.941121    
   4246.100       1.923256    
   4247.000       1.915514    
   4247.900       1.920374    
   4248.800       1.927336    
   4249.700       1.918547    
   4250.600       1.909838    
   4251.500       1.918947    
   4252.400       1.935305    
   4253.300       1.938535    
   4254.200       1.933117    
   4255.100       1.938943    
   4256.000       1.943439    
   4256.900       1.941207    
   4257.800       1.934581    
   4258.700       1.926409    
   4259.600       1.912476    
   4260.500       1.904144    
   4261.400       1.905551    
   4262.300       1.917871    
   4263.200       1.928193    
   4264.100       1.932939    
   4265.000       1.930727    
   4265.900       1.926388    
   4266.800       1.917532    
   4267.700       1.910830    
   4268.600       1.904160    
   4269.500       1.890348    
   4270.400       1.859959    
   4271.300       1.837349    
   4272.200       1.842288    
   4273.100       1.866335    
   4274.000       1.878130    
   4274.900       1.880450    
   4275.800       1.884763    
   4276.700       1.890066    
   4277.600       1.891827    
   4278.500       1.896262    
   4279.400       1.895298    
   4280.300       1.884122    
   4281.200       1.869902    
   4282.100       1.860972    
   4283.000       1.860234    
   4283.900       1.861886    
   4284.800       1.867681    
   4285.700       1.872736    
   4286.600       1.874377    
   4287.500       1.856249    
   4288.400       1.828432    
   4289.300       1.808526    
   4290.200       1.811438    
   4291.100       1.829916    
   4292.000       1.841115    
   4292.900       1.827355    
   4293.800       1.810795    
   4294.700       1.808167    
   4295.600       1.816352    
   4296.500       1.817933    
   4297.400       1.809426    
   4298.300       1.782191    
   4299.200       1.748613    
   4300.100       1.731686    
   4301.000       1.734756    
   4301.900       1.737336    
   4302.800       1.741680    
   4303.700       1.751571    
   4304.600       1.760673    
   4305.500       1.750360    
   4306.400       1.722358    
   4307.300       1.691235    
   4308.200       1.683024    
   4309.100       1.700500    
   4310.000       1.721951    
   4310.900       1.727111    
   4311.800       1.709119    
   4312.700       1.682895    
   4313.600       1.658310    
   4314.500       1.646989    
   4315.400       1.648609    
   4316.300       1.652211    
   4317.200       1.643355    
   4318.100       1.628501    
   4319.000       1.609035    
   4319.900       1.593271    
   4320.800       1.582647    
   4321.700       1.573430    
   4322.600       1.557486    
   4323.500       1.531907    
   4324.400       1.491932    
   4325.300       1.455016    
   4326.200       1.434034    
   4327.100       1.426229    
   4328.000       1.411695    
   4328.900       1.387190    
   4329.800       1.355638    
   4330.700       1.320664    
   4331.600       1.282349    
   4332.500       1.241926    
   4333.400       1.194339    
   4334.300       1.140594    
   4335.200       1.077079    
   4336.100       1.005663    
   4337.000      0.9231129    
   4337.900      0.8234155    
   4338.800      0.7080787    
   4339.700      0.6100615    
   4340.600      0.5885398    
   4341.500      0.6559026    
   4342.400      0.7683045    
   4343.300      0.8772004    
   4344.200      0.9679765    
   4345.100       1.042320    
   4346.000       1.107196    
   4346.900       1.161766    
   4347.800       1.210028    
   4348.700       1.255676    
   4349.600       1.297415    
   4350.500       1.324667    
   4351.400       1.345102    
   4352.300       1.372061    
   4353.200       1.408293    
   4354.100       1.441927    
   4355.000       1.471783    
   4355.900       1.496529    
   4356.800       1.520211    
   4357.700       1.539843    
   4358.600       1.557572    
   4359.500       1.573059    
   4360.400       1.591411    
   4361.300       1.606969    
   4362.200       1.619218    
   4363.100       1.630942    
   4364.000       1.644785    
   4364.900       1.654016    
   4365.800       1.659539    
   4366.700       1.664158    
   4367.600       1.667163    
   4368.500       1.675693    
   4369.400       1.682632    
   4370.300       1.683018    
   4371.200       1.683914    
   4372.100       1.695040    
   4373.000       1.701153    
   4373.900       1.700737    
   4374.800       1.700517    
   4375.700       1.713787    
   4376.600       1.732456    
   4377.500       1.742827    
   4378.400       1.744143    
   4379.300       1.748029    
   4380.200       1.751820    
   4381.100       1.744961    
   4382.000       1.716015    
   4382.900       1.685138    
   4383.800       1.677657    
   4384.700       1.701564    
   4385.600       1.728994    
   4386.500       1.745100    
   4387.400       1.752659    
   4388.300       1.756030    
   4389.200       1.754857    
   4390.100       1.756982    
   4391.000       1.758165    
   4391.900       1.760283    
   4392.800       1.753631    
   4393.700       1.737468    
   4394.600       1.720080    
   4395.500       1.719608    
   4396.400       1.742442    
   4397.300       1.760898    
   4398.200       1.761857    
   4399.100       1.752410    
   4400.000       1.747637    
   4400.900       1.751052    
   4401.800       1.757409    
   4402.700       1.752248    
   4403.600       1.734190    
   4404.500       1.718218    
   4405.400       1.729122    
   4406.300       1.749352    
   4407.200       1.762087    
   4408.100       1.765616    
   4409.000       1.767094    
   4409.900       1.767201    
   4410.800       1.768168    
   4411.700       1.768662    
   4412.600       1.768794    
   4413.500       1.755555    
   4414.400       1.734124    
   4415.300       1.716594    
   4416.200       1.716309    
   4417.100       1.726355    
   4418.000       1.742513    
   4418.900       1.755637    
   4419.800       1.760888    
   4420.700       1.761540    
   4421.600       1.766586    
   4422.500       1.768674    
   4423.400       1.767062    
   4424.300       1.762509    
   4425.200       1.753980    
   4426.100       1.749694    
   4427.000       1.746198    
   4427.900       1.748042    
   4428.800       1.749549    
   4429.700       1.752115    
   4430.600       1.750260    
   4431.500       1.745481    
   4432.400       1.741402    
   4433.300       1.734854    
   4434.200       1.722801    
   4435.100       1.721735    
   4436.000       1.731610    
   4436.900       1.743728    
   4437.800       1.746840    
   4438.700       1.748505    
   4439.600       1.746408    
   4440.500       1.741005    
   4441.400       1.729325    
   4442.300       1.711608    
   4443.200       1.698463    
   4444.100       1.701966    
   4445.000       1.710601    
   4445.900       1.720291    
   4446.800       1.723440    
   4447.700       1.724671    
   4448.600       1.725021    
   4449.500       1.723396    
   4450.400       1.718703    
   4451.300       1.720517    
   4452.200       1.726089    
   4453.100       1.723591    
   4454.000       1.710369    
   4454.900       1.700806    
   4455.800       1.706869    
   4456.700       1.718939    
   4457.600       1.730321    
   4458.500       1.733447    
   4459.400       1.735279    
   4460.300       1.732167    
   4461.200       1.729409    
   4462.100       1.727362    
   4463.000       1.723714    
   4463.900       1.714808    
   4464.800       1.706698    
   4465.700       1.702722    
   4466.600       1.700071    
   4467.500       1.686268    
   4468.400       1.676934    
   4469.300       1.681856    
   4470.200       1.697839    
   4471.100       1.708803    
   4472.000       1.716406    
   4472.900       1.720186    
   4473.800       1.718303    
   4474.700       1.711280    
   4475.600       1.703208    
   4476.500       1.693785    
   4477.400       1.687973    
   4478.300       1.682201    
   4479.200       1.675099    
   4480.100       1.653957    
   4481.000       1.634065    
   4481.900       1.648463    
   4482.800       1.681450    
   4483.700       1.702995    
   4484.600       1.707071    
   4485.500       1.708665    
   4486.400       1.710492    
   4487.300       1.708189    
   4488.200       1.700430    
   4489.100       1.699001    
   4490.000       1.699266    
   4490.900       1.701500    
   4491.800       1.702412    
   4492.700       1.703905    
   4493.600       1.704501    
   4494.500       1.710378    
   4495.400       1.714940    
   4496.300       1.710961    
   4497.200       1.704093    
   4498.100       1.704524    
   4499.000       1.700116    
   4499.900       1.684959    
   4500.800       1.665018    
   4501.700       1.664069    
   4502.600       1.676609    
   4503.500       1.690929    
   4504.400       1.699645    
   4505.300       1.700336    
   4506.200       1.692835    
   4507.100       1.684297    
   4508.000       1.677884    
   4508.900       1.678738    
   4509.800       1.684701    
   4510.700       1.688847    
   4511.600       1.693472    
   4512.500       1.692457    
   4513.400       1.684905    
   4514.300       1.673722    
   4515.200       1.670917    
   4516.100       1.674666    
   4517.000       1.679707    
   4517.900       1.678364    
   4518.800       1.672118    
   4519.700       1.664081    
   4520.600       1.661314    
   4521.500       1.655310    
   4522.400       1.650115    
   4523.300       1.651778    
   4524.200       1.660835    
   4525.100       1.663844    
   4526.000       1.666918    
   4526.900       1.669325    
   4527.800       1.661572    
   4528.700       1.648698    
   4529.600       1.647805    
   4530.500       1.652521    
   4531.400       1.654959    
   4532.300       1.643771    
   4533.200       1.630051    
   4534.100       1.625553    
   4535.000       1.635868    
   4535.900       1.648306    
   4536.800       1.653797    
   4537.700       1.656500    
   4538.600       1.658309    
   4539.500       1.658120    
   4540.400       1.654062    
   4541.300       1.650014    
   4542.200       1.648407    
   4543.100       1.651707    
   4544.000       1.649660    
   4544.900       1.644081    
   4545.800       1.640028    
   4546.700       1.637917    
   4547.600       1.621998    
   4548.500       1.592634    
   4549.400       1.569288    
   4550.300       1.577292    
   4551.200       1.605305    
   4552.100       1.621161    
   4553.000       1.614141    
   4553.900       1.603647    
   4554.800       1.600042    
   4555.700       1.610044    
   4556.600       1.618327    
   4557.500       1.619867    
   4558.400       1.620035    
   4559.300       1.623351    
   4560.200       1.626224    
   4561.100       1.627357    
   4562.000       1.617762    
   4562.900       1.601745    
   4563.800       1.592502    
   4564.700       1.604677    
   4565.600       1.619013    
   4566.500       1.622922    
   4567.400       1.626146    
   4568.300       1.628754    
   4569.200       1.627872    
   4570.100       1.615222    
   4571.000       1.596172    
   4571.900       1.583998    
   4572.800       1.594072    
   4573.700       1.610201    
   4574.600       1.617179    
   4575.500       1.617188    
   4576.400       1.619073    
   4577.300       1.622233    
   4578.200       1.625534    
   4579.100       1.621391    
   4580.000       1.620468    
   4580.900       1.622426    
   4581.800       1.616654    
   4582.700       1.598500    
   4583.600       1.587008    
   4584.500       1.594673    
   4585.400       1.613114    
   4586.300       1.620217    
   4587.200       1.618778    
   4588.100       1.614819    
   4589.000       1.615200    
   4589.900       1.617452    
   4590.800       1.621874    
   4591.700       1.622188    
   4592.600       1.621320    
   4593.500       1.624361    
   4594.400       1.629834    
   4595.300       1.631483    
   4596.200       1.629606    
   4597.100       1.626615    
   4598.000       1.622827    
   4598.900       1.620643    
   4599.800       1.617965    
   4600.700       1.619992    
   4601.600       1.620593    
   4602.500       1.619261    
   4603.400       1.614327    
   4604.300       1.610288    
   4605.200       1.606063    
   4606.100       1.606875    
   4607.000       1.610577    
   4607.900       1.611772    
   4608.800       1.609277    
   4609.700       1.610569    
   4610.600       1.609187    
   4611.500       1.606789    
   4612.400       1.606247    
   4613.300       1.607445    
   4614.200       1.604543    
   4615.100       1.604434    
   4616.000       1.605654    
   4616.900       1.605010    
   4617.800       1.598349    
   4618.700       1.592918    
   4619.600       1.590563    
   4620.500       1.594757    
   4621.400       1.598665    
   4622.300       1.601705    
   4623.200       1.600157    
   4624.100       1.594317    
   4625.000       1.594072    
   4625.900       1.597247    
   4626.800       1.599330    
   4627.700       1.592470    
   4628.600       1.580803    
   4629.500       1.578258    
   4630.400       1.586976    
   4631.300       1.589998    
   4632.200       1.587062    
   4633.100       1.581078    
   4634.000       1.578447    
   4634.900       1.577517    
   4635.800       1.581198    
   4636.700       1.582435    
   4637.600       1.580761    
   4638.500       1.579516    
   4639.400       1.580282    
   4640.300       1.577689    
   4641.200       1.577233    
   4642.100       1.577562    
   4643.000       1.579101    
   4643.900       1.578814    
   4644.800       1.580320    
   4645.700       1.579686    
   4646.600       1.577011    
   4647.500       1.573548    
   4648.400       1.574815    
   4649.300       1.578051    
   4650.200       1.581182    
   4651.100       1.577360    
   4652.000       1.571167    
   4652.900       1.569459    
   4653.800       1.568960    
   4654.700       1.570750    
   4655.600       1.571963    
   4656.500       1.572884    
   4657.400       1.570106    
   4658.300       1.570083    
   4659.200       1.570751    
   4660.100       1.571504    
   4661.000       1.570491    
   4661.900       1.571413    
   4662.800       1.574072    
   4663.700       1.575498    
   4664.600       1.569551    
   4665.500       1.566250    
   4666.400       1.564241    
   4667.300       1.562661    
   4668.200       1.560334    
   4669.100       1.562390    
   4670.000       1.561898    
   4670.900       1.557904    
   4671.800       1.552905    
   4672.700       1.551180    
   4673.600       1.550369    
   4674.500       1.550694    
   4675.400       1.549009    
   4676.300       1.551980    
   4677.200       1.552292    
   4678.100       1.547540    
   4679.000       1.543426    
   4679.900       1.546762    
   4680.800       1.548663    
   4681.700       1.547105    
   4682.600       1.545862    
   4683.500       1.542195    
   4684.400       1.541328    
   4685.300       1.541458    
   4686.200       1.540971    
   4687.100       1.539944    
   4688.000       1.543616    
   4688.900       1.543975    
   4689.800       1.539348    
   4690.700       1.533688    
   4691.600       1.534413    
   4692.500       1.534976    
   4693.400       1.534876    
   4694.300       1.535162    
   4695.200       1.536698    
   4696.100       1.537184    
   4697.000       1.541403    
   4697.900       1.541189    
   4698.800       1.538406    
   4699.700       1.534012    
   4700.600       1.528669    
   4701.500       1.520708    
   4702.400       1.515343    
   4703.300       1.513327    
   4704.200       1.518434    
   4705.100       1.526180    
   4706.000       1.530099    
   4706.900       1.527196    
   4707.800       1.526251    
   4708.700       1.524647    
   4709.600       1.522459    
   4710.500       1.520723    
   4711.400       1.516320    
   4712.300       1.513837    
   4713.200       1.514193    
   4714.100       1.517232    
   4715.000       1.514355    
   4715.900       1.511963    
   4716.800       1.510750    
   4717.700       1.509329    
   4718.600       1.509573    
   4719.500       1.512518    
   4720.400       1.509998    
   4721.300       1.508317    
   4722.200       1.509259    
   4723.100       1.510746    
   4724.000       1.508094    
   4724.900       1.508335    
   4725.800       1.510117    
   4726.700       1.511749    
   4727.600       1.511730    
   4728.500       1.511371    
   4729.400       1.508364    
   4730.300       1.507651    
   4731.200       1.504698    
   4732.100       1.503742    
   4733.000       1.502526    
   4733.900       1.498150    
   4734.800       1.492577    
   4735.700       1.491558    
   4736.600       1.493517    
   4737.500       1.498089    
   4738.400       1.501719    
   4739.300       1.498743    
   4740.200       1.494970    
   4741.100       1.491706    
   4742.000       1.492457    
   4742.900       1.493922    
   4743.800       1.495744    
   4744.700       1.493033    
   4745.600       1.489878    
   4746.500       1.488552    
   4747.400       1.491428    
   4748.300       1.491800    
   4749.200       1.489115    
   4750.100       1.486212    
   4751.000       1.486283    
   4751.900       1.482881    
   4752.800       1.480430    
   4753.700       1.480423    
   4754.600       1.482888    
   4755.500       1.481714    
   4756.400       1.480095    
   4757.300       1.477807    
   4758.200       1.478594    
   4759.100       1.477749    
   4760.000       1.468706    
   4760.900       1.452738    
   4761.800       1.442268    
   4762.700       1.441363    
   4763.600       1.450161    
   4764.500       1.456243    
   4765.400       1.457442    
   4766.300       1.451997    
   4767.200       1.446097    
   4768.100       1.446422    
   4769.000       1.442876    
   4769.900       1.433702    
   4770.800       1.420867    
   4771.700       1.417351    
   4772.600       1.425838    
   4773.500       1.438191    
   4774.400       1.441674    
   4775.300       1.437243    
   4776.200       1.433590    
   4777.100       1.438471    
   4778.000       1.442283    
   4778.900       1.442810    
   4779.800       1.439479    
   4780.700       1.439999    
   4781.600       1.443914    
   4782.500       1.446740    
   4783.400       1.446140    
   4784.300       1.446339    
   4785.200       1.446046    
   4786.100       1.448457    
   4787.000       1.449921    
   4787.900       1.451268    
   4788.800       1.447736    
   4789.700       1.442695    
   4790.600       1.438964    
   4791.500       1.438915    
   4792.400       1.439167    
   4793.300       1.439131    
   4794.200       1.437716    
   4795.100       1.437597    
   4796.000       1.436459    
   4796.900       1.433956    
   4797.800       1.433666    
   4798.700       1.432186    
   4799.600       1.432387    
   4800.500       1.431947    
   4801.400       1.433208    
   4802.300       1.429437    
   4803.200       1.422714    
   4804.100       1.416597    
   4805.000       1.415070    
   4805.900       1.415776    
   4806.800       1.416272    
   4807.700       1.415190    
   4808.600       1.417103    
   4809.500       1.416451    
   4810.400       1.414166    
   4811.300       1.407820    
   4812.200       1.402115    
   4813.100       1.400026    
   4814.000       1.401360    
   4814.900       1.399750    
   4815.800       1.393872    
   4816.700       1.385330    
   4817.600       1.381147    
   4818.500       1.375353    
   4819.400       1.368333    
   4820.300       1.360806    
   4821.200       1.355798    
   4822.100       1.351059    
   4823.000       1.346711    
   4823.900       1.338734    
   4824.800       1.329060    
   4825.700       1.324124    
   4826.600       1.320854    
   4827.500       1.316773    
   4828.400       1.309050    
   4829.300       1.302695    
   4830.200       1.296986    
   4831.100       1.293369    
   4832.000       1.289466    
   4832.900       1.282750    
   4833.800       1.271822    
   4834.700       1.266235    
   4835.600       1.262374    
   4836.500       1.254824    
   4837.400       1.246381    
   4838.300       1.241674    
   4839.200       1.235595    
   4840.100       1.226296    
   4841.000       1.212152    
   4841.900       1.200235    
   4842.800       1.188142    
   4843.700       1.176218    
   4844.600       1.164511    
   4845.500       1.152986    
   4846.400       1.138577    
   4847.300       1.120366    
   4848.200       1.099156    
   4849.100       1.081650    
   4850.000       1.062911    
   4850.900       1.042181    
   4851.800       1.018008    
   4852.700      0.9897825    
   4853.600      0.9594207    
   4854.500      0.9270872    
   4855.400      0.8941873    
   4856.300      0.8557969    
   4857.200      0.8110242    
   4858.100      0.7523979    
   4859.000      0.6747407    
   4859.900      0.5857782    
   4860.800      0.5196487    
   4861.700      0.5161852    
   4862.600      0.5778908    
   4863.500      0.6668203    
   4864.400      0.7496868    
   4865.300      0.8132458    
   4866.200      0.8636897    
   4867.100      0.9056572    
   4868.000      0.9430200    
   4868.900      0.9754490    
   4869.800       1.004963    
   4870.700       1.031202    
   4871.600       1.055051    
   4872.500       1.076895    
   4873.400       1.098454    
   4874.300       1.117148    
   4875.200       1.138949    
   4876.100       1.159661    
   4877.000       1.176617    
   4877.900       1.191696    
   4878.800       1.205794    
   4879.700       1.216739    
   4880.600       1.226267    
   4881.500       1.236241    
   4882.400       1.244488    
   4883.300       1.251740    
   4884.200       1.259938    
   4885.100       1.270468    
   4886.000       1.278460    
   4886.900       1.285877    
   4887.800       1.290655    
   4888.700       1.295328    
   4889.600       1.295328    
   4890.500       1.293287    
   4891.400       1.297242    
   4892.300       1.309094    
   4893.200       1.318985    
   4894.100       1.324187    
   4895.000       1.324908    
   4895.900       1.329067    
   4896.800       1.328892    
   4897.700       1.324057    
   4898.600       1.321749    
   4899.500       1.326505    
   4900.400       1.326322    
   4901.300       1.321435    
   4902.200       1.319970    
   4903.100       1.320194    
   4904.000       1.318850    
   4904.900       1.322862    
   4905.800       1.324094    
   4906.700       1.322789    
   4907.600       1.321381    
   4908.500       1.322862    
   4909.400       1.324630    
   4910.300       1.322808    
   4911.200       1.321115    
   4912.100       1.322498    
   4913.000       1.326539    
   4913.900       1.329649    
   4914.800       1.332793    
   4915.700       1.332966    
   4916.600       1.331901    
   4917.500       1.326425    
   4918.400       1.320818    
   4919.300       1.314526    
   4920.200       1.311730    
   4921.100       1.311951    
   4922.000       1.310506    
   4922.900       1.300101    
   4923.800       1.291856    
   4924.700       1.298080    
   4925.600       1.314902    
   4926.500       1.328750    
   4927.400       1.338191    
   4928.300       1.339916    
   4929.200       1.339063    
   4930.100       1.332865    
   4931.000       1.321191    
   4931.900       1.309339    
   4932.800       1.306248    
   4933.700       1.312034    
   4934.600       1.321498    
   4935.500       1.328100    
   4936.400       1.334781    
   4937.300       1.337870    
   4938.200       1.339582    
   4939.100       1.341264    
   4940.000       1.339339    
   4940.900       1.337687    
   4941.800       1.335496    
   4942.700       1.337317    
   4943.600       1.338918    
   4944.500       1.339076    
   4945.400       1.338490    
   4946.300       1.336618    
   4947.200       1.333779    
   4948.100       1.336150    
   4949.000       1.336441    
   4949.900       1.333800    
   4950.800       1.332518    
   4951.700       1.335512    
   4952.600       1.336263    
   4953.500       1.337272    
   4954.400       1.333788    
   4955.300       1.325375    
   4956.200       1.313613    
   4957.100       1.305262    
   4958.000       1.307480    
   4958.900       1.319713    
   4959.800       1.327185    
   4960.700       1.330320    
   4961.600       1.331853    
   4962.500       1.334087    
   4963.400       1.333052    
   4964.300       1.332369    
   4965.200       1.332946    
   4966.100       1.331700    
   4967.000       1.327001    
   4967.900       1.323781    
   4968.800       1.325400    
   4969.700       1.327487    
   4970.600       1.326844    
   4971.500       1.324044    
   4972.400       1.325248    
   4973.300       1.325684    
   4974.200       1.325153    
   4975.100       1.324681    
   4976.000       1.325707    
   4976.900       1.323551    
   4977.800       1.321432    
   4978.700       1.319957    
   4979.600       1.320184    
   4980.500       1.318439    
   4981.400       1.314637    
   4982.300       1.308846    
   4983.200       1.308338    
   4984.100       1.309892    
   4985.000       1.315089    
   4985.900       1.325987    
   4986.800       1.338816    
   4987.700       1.336237    
   4988.600       1.318504    
   4989.500       1.303951    
   4990.400       1.303539    
   4991.300       1.308296    
   4992.200       1.310920    
   4993.100       1.306594    
   4994.000       1.305363    
   4994.900       1.306024    
   4995.800       1.303601    
   4996.700       1.302846    
   4997.600       1.302542    
   4998.500       1.305459    
   4999.400       1.306413    
   5000.300       1.302655    
   5001.200       1.298948    
   5002.100       1.300039    
   5003.000       1.300800    
   5003.900       1.301339    
   5004.800       1.298690    
   5005.700       1.294892    
   5006.600       1.292682    
   5007.500       1.295613    
   5008.400       1.297307    
   5009.300       1.297543    
   5010.200       1.295069    
   5011.100       1.291721    
   5012.000       1.288537    
   5012.900       1.286003    
   5013.800       1.283323    
   5014.700       1.285799    
   5015.600       1.282172    
   5016.500       1.267081    
   5017.400       1.244024    
   5018.300       1.231023    
   5019.200       1.241149    
   5020.100       1.262508    
   5021.000       1.274095    
   5021.900       1.276752    
   5022.800       1.274192    
   5023.700       1.270546    
   5024.600       1.272186    
   5025.500       1.279530    
   5026.400       1.286839    
   5027.300       1.287400    
   5028.200       1.286126    
   5029.100       1.284309    
   5030.000       1.283942    
   5030.900       1.281398    
   5031.800       1.280752    
   5032.700       1.280960    
   5033.600       1.280129    
   5034.500       1.279652    
   5035.400       1.279593    
   5036.300       1.275582    
   5037.200       1.271881    
   5038.100       1.264781    
   5039.000       1.256445    
   5039.900       1.248419    
   5040.800       1.243939    
   5041.700       1.247366    
   5042.600       1.258844    
   5043.500       1.268659    
   5044.400       1.274793    
   5045.300       1.275700    
   5046.200       1.274870    
   5047.100       1.273351    
   5048.000       1.273615    
   5048.900       1.271235    
   5049.800       1.264943    
   5050.700       1.251670    
   5051.600       1.239503    
   5052.500       1.238004    
   5053.400       1.247114    
   5054.300       1.258478    
   5055.200       1.262924    
   5056.100       1.262640    
   5057.000       1.263172    
   5057.900       1.266119    
   5058.800       1.268215    
   5059.700       1.268817    
   5060.600       1.265599    
   5061.500       1.264431    
   5062.400       1.264123    
   5063.300       1.264587    
   5064.200       1.261735    
   5065.100       1.259501    
   5066.000       1.260302    
   5066.900       1.263438    
   5067.800       1.264246    
   5068.700       1.264641    
   5069.600       1.264990    
   5070.500       1.266172    
   5071.400       1.264839    
   5072.300       1.263296    
   5073.200       1.260708    
   5074.100       1.258560    
   5075.000       1.256713    
   5075.900       1.257556    
   5076.800       1.255879    
   5077.700       1.253335    
   5078.600       1.251614    
   5079.500       1.253110    
   5080.400       1.253958    
   5081.300       1.253662    
   5082.200       1.253996    
   5083.100       1.252484    
   5084.000       1.253220    
   5084.900       1.255914    
   5085.800       1.256321    
   5086.700       1.252200    
   5087.600       1.250027    
   5088.500       1.249157    
   5089.400       1.247057    
   5090.300       1.244591    
   5091.200       1.245866    
   5092.100       1.244533    
   5093.000       1.244495    
   5093.900       1.245247    
   5094.800       1.243325    
   5095.700       1.238319    
   5096.600       1.235821    
   5097.500       1.236324    
   5098.400       1.238779    
   5099.300       1.238202    
   5100.200       1.238015    
   5101.100       1.240220    
   5102.000       1.245140    
   5102.900       1.245840    
   5103.800       1.242804    
   5104.700       1.239157    
   5105.600       1.241197    
   5106.500       1.241622    
   5107.400       1.239508    
   5108.300       1.237677    
   5109.200       1.238749    
   5110.100       1.239595    
   5111.000       1.239051    
   5111.900       1.239145    
   5112.800       1.240581    
   5113.700       1.242911    
   5114.600       1.242286    
   5115.500       1.243092    
   5116.400       1.242121    
   5117.300       1.239693    
   5118.200       1.237855    
   5119.100       1.239761    
   5120.000       1.241838    
   5120.900       1.240902    
   5121.800       1.236023    
   5122.700       1.235255    
   5123.600       1.236235    
   5124.500       1.234751    
   5125.400       1.229710    
   5126.300       1.230304    
   5127.200       1.233021    
   5128.100       1.233382    
   5129.000       1.229155    
   5129.900       1.227553    
   5130.800       1.228881    
   5131.700       1.227757    
   5132.600       1.224014    
   5133.500       1.224245    
   5134.400       1.223730    
   5135.300       1.222385    
   5136.200       1.222668    
   5137.100       1.226023    
   5138.000       1.223258    
   5138.900       1.216553    
   5139.800       1.218444    
   5140.700       1.222036    
   5141.600       1.220022    
   5142.500       1.218144    
   5143.400       1.220044    
   5144.300       1.219412    
   5145.200       1.219842    
   5146.100       1.219007    
   5147.000       1.216826    
   5147.900       1.214736    
   5148.800       1.215158    
   5149.700       1.215113    
   5150.600       1.215042    
   5151.500       1.211660    
   5152.400       1.209433    
   5153.300       1.208678    
   5154.200       1.207761    
   5155.100       1.206834    
   5156.000       1.208472    
   5156.900       1.207365    
   5157.800       1.204723    
   5158.700       1.203648    
   5159.600       1.205882    
   5160.500       1.204702    
   5161.400       1.202526    
   5162.300       1.201548    
   5163.200       1.202980    
   5164.100       1.203537    
   5165.000       1.199051    
   5165.900       1.181122    
   5166.800       1.153698    
   5167.700       1.131829    
   5168.600       1.127516    
   5169.500       1.143683    
   5170.400       1.162026    
   5171.300       1.164301    
   5172.200       1.153849    
   5173.100       1.155742    
   5174.000       1.171295    
   5174.900       1.188393    
   5175.800       1.197689    
   5176.700       1.200448    
   5177.600       1.199368    
   5178.500       1.199167    
   5179.400       1.198624    
   5180.300       1.198638    
   5181.200       1.191786    
   5182.100       1.173918    
   5183.000       1.150052    
   5183.900       1.142247    
   5184.800       1.155820    
   5185.700       1.175025    
   5186.600       1.183856    
   5187.500       1.184369    
   5188.400       1.183407    
   5189.300       1.184376    
   5190.200       1.185084    
   5191.100       1.187124    
   5192.000       1.184886    
   5192.900       1.184103    
   5193.800       1.188075    
   5194.700       1.190861    
   5195.600       1.188359    
   5196.500       1.182234    
   5197.400       1.178857    
   5198.300       1.179822    
   5199.200       1.182996    
   5200.100       1.184285    
   5201.000       1.184464    
   5201.900       1.182909    
   5202.800       1.181970    
   5203.700       1.180986    
   5204.600       1.182002    
   5205.500       1.180378    
   5206.400       1.176367    
   5207.300       1.171257    
   5208.200       1.171641    
   5209.100       1.177271    
   5210.000       1.181485    
   5210.900       1.180078    
   5211.800       1.180042    
   5212.700       1.180751    
   5213.600       1.179801    
   5214.500       1.175988    
   5215.400       1.173780    
   5216.300       1.171500    
   5217.200       1.172003    
   5218.100       1.172871    
   5219.000       1.173509    
   5219.900       1.175829    
   5220.800       1.178856    
   5221.700       1.176013    
   5222.600       1.174191    
   5223.500       1.174352    
   5224.400       1.171735    
   5225.300       1.163604    
   5226.200       1.154797    
   5227.100       1.152204    
   5228.000       1.153122    
   5228.900       1.159457    
   5229.800       1.165070    
   5230.700       1.166901    
   5231.600       1.162595    
   5232.500       1.156141    
   5233.400       1.150828    
   5234.300       1.151104    
   5235.200       1.154757    
   5236.100       1.159246    
   5237.000       1.160018    
   5237.900       1.162137    
   5238.800       1.162547    
   5239.700       1.162414    
   5240.600       1.163837    
   5241.500       1.164924    
   5242.400       1.162681    
   5243.300       1.160355    
   5244.200       1.158351    
   5245.100       1.157390    
   5246.000       1.156900    
   5246.900       1.159110    
   5247.800       1.157252    
   5248.700       1.152935    
   5249.600       1.150931    
   5250.500       1.151627    
   5251.400       1.152598    
   5252.300       1.153729    
   5253.200       1.156252    
   5254.100       1.157217    
   5255.000       1.156360    
   5255.900       1.155642    
   5256.800       1.155189    
   5257.700       1.154310    
   5258.600       1.155839    
   5259.500       1.154381    
   5260.400       1.153265    
   5261.300       1.151302    
   5262.200       1.149174    
   5263.100       1.145925    
   5264.000       1.141285    
   5264.900       1.139459    
   5265.800       1.141181    
   5266.700       1.140821    
   5267.600       1.136700    
   5268.500       1.127120    
   5269.400       1.121552    
   5270.300       1.122985    
   5271.200       1.131858    
   5272.100       1.139604    
   5273.000       1.141045    
   5273.900       1.136656    
   5274.800       1.130721    
   5275.700       1.127878    
   5276.600       1.130593    
   5277.500       1.133791    
   5278.400       1.137038    
   5279.300       1.135529    
   5280.200       1.135258    
   5281.100       1.137699    
   5282.000       1.136925    
   5282.900       1.134655    
   5283.800       1.132558    
   5284.700       1.135281    
   5285.600       1.138592    
   5286.500       1.139302    
   5287.400       1.138345    
   5288.300       1.136874    
   5289.200       1.136832    
   5290.100       1.138776    
   5291.000       1.136633    
   5291.900       1.135711    
   5292.800       1.134992    
   5293.700       1.135633    
   5294.600       1.136316    
   5295.500       1.134600    
   5296.400       1.131258    
   5297.300       1.130356    
   5298.200       1.130687    
   5299.100       1.131541    
   5300.000       1.129785    
   5300.900       1.128122    
   5301.800       1.126314    
   5302.700       1.127014    
   5303.600       1.129642    
   5304.500       1.132579    
   5305.400       1.129504    
   5306.300       1.124338    
   5307.200       1.123551    
   5308.100       1.126508    
   5309.000       1.126645    
   5309.900       1.124178    
   5310.800       1.120510    
   5311.700       1.117821    
   5312.600       1.117955    
   5313.500       1.117338    
   5314.400       1.116597    
   5315.300       1.109373    
   5316.200       1.101327    
   5317.100       1.099976    
   5318.000       1.105327    
   5318.900       1.110170    
   5319.800       1.111347    
   5320.700       1.110842    
   5321.600       1.112591    
   5322.500       1.113081    
   5323.400       1.112615    
   5324.300       1.108830    
   5325.200       1.106785    
   5326.100       1.104101    
   5327.000       1.098961    
   5327.900       1.093192    
   5328.800       1.091980    
   5329.700       1.094992    
   5330.600       1.099474    
   5331.500       1.102942    
   5332.400       1.108307    
   5333.300       1.110717    
   5334.200       1.112078    
   5335.100       1.110426    
   5336.000       1.107028    
   5336.900       1.104051    
   5337.800       1.102505    
   5338.700       1.100312    
   5339.600       1.099995    
   5340.500       1.102766    
   5341.400       1.104731    
   5342.300       1.105468    
   5343.200       1.106478    
   5344.100       1.106464    
   5345.000       1.104605    
   5345.900       1.106024    
   5346.800       1.105217    
   5347.700       1.103393    
   5348.600       1.100936    
   5349.500       1.100291    
   5350.400       1.100681    
   5351.300       1.102677    
   5352.200       1.105417    
   5353.100       1.107510    
   5354.000       1.105811    
   5354.900       1.105320    
   5355.800       1.102818    
   5356.700       1.100189    
   5357.600       1.098974    
   5358.500       1.100838    
   5359.400       1.100722    
   5360.300       1.099197    
   5361.200       1.097595    
   5362.100       1.095138    
   5363.000       1.093316    
   5363.900       1.095905    
   5364.800       1.095740    
   5365.700       1.093598    
   5366.600       1.090794    
   5367.500       1.089303    
   5368.400       1.088716    
   5369.300       1.083563    
   5370.200       1.079526    
   5371.100       1.078014    
   5372.000       1.079569    
   5372.900       1.083743    
   5373.800       1.087215    
   5374.700       1.086383    
   5375.600       1.084386    
   5376.500       1.084543    
   5377.400       1.086347    
   5378.300       1.079831    
   5379.200       1.068647    
   5380.100       1.059379    
   5381.000       1.060142    
   5381.900       1.067671    
   5382.800       1.073078    
   5383.700       1.074532    
   5384.600       1.077748    
   5385.500       1.079946    
   5386.400       1.081948    
   5387.300       1.081092    
   5388.200       1.081574    
   5389.100       1.082251    
   5390.000       1.082642    
   5390.900       1.080669    
   5391.800       1.077817    
   5392.700       1.076151    
   5393.600       1.076704    
   5394.500       1.076845    
   5395.400       1.076547    
   5396.300       1.075741    
   5397.200       1.075622    
   5398.100       1.075877    
   5399.000       1.074623    
   5399.900       1.075943    
   5400.800       1.075389    
   5401.700       1.073570    
   5402.600       1.068590    
   5403.500       1.064422    
   5404.400       1.062440    
   5405.300       1.062036    
   5406.200       1.063708    
   5407.100       1.067004    
   5408.000       1.068244    
   5408.900       1.067993    
   5409.800       1.065940    
   5410.700       1.067312    
   5411.600       1.069445    
   5412.500       1.070197    
   5413.400       1.067067    
   5414.300       1.061678    
   5415.200       1.058938    
   5416.100       1.059655    
   5417.000       1.061264    
   5417.900       1.065034    
   5418.800       1.066171    
   5419.700       1.064404    
   5420.600       1.060954    
   5421.500       1.061199    
   5422.400       1.061953    
   5423.300       1.059613    
   5424.200       1.055815    
   5425.100       1.054547    
   5426.000       1.056193    
   5426.900       1.058032    
   5427.800       1.055992    
   5428.700       1.054049    
   5429.600       1.055625    
   5430.500       1.056471    
   5431.400       1.057992    
   5432.300       1.057864    
   5433.200       1.055510    
   5434.100       1.050977    
   5435.000       1.050434    
   5435.900       1.051406    
   5436.800       1.052729    
   5437.700       1.053788    
   5438.600       1.054241    
   5439.500       1.053380    
   5440.400       1.052701    
   5441.300       1.050977    
   5442.200       1.051741    
   5443.100       1.051095    
   5444.000       1.049787    
   5444.900       1.048981    
   5445.800       1.049581    
   5446.700       1.051868    
   5447.600       1.055219    
   5448.500       1.052553    
   5449.400       1.048478    
   5450.300       1.046741    
   5451.200       1.046268    
   5452.100       1.045798    
   5453.000       1.045710    
   5453.900       1.044611    
   5454.800       1.041033    
   5455.700       1.039388    
   5456.600       1.040220    
   5457.500       1.043798    
   5458.400       1.044202    
   5459.300       1.041197    
   5460.200       1.039657    
   5461.100       1.040803    
   5462.000       1.039180    
   5462.900       1.037355    
   5463.800       1.037396    
   5464.700       1.039942    
   5465.600       1.040356    
   5466.500       1.040460    
   5467.400       1.038920    
   5468.300       1.035029    
   5469.200       1.033112    
   5470.100       1.034745    
   5471.000       1.034898    
   5471.900       1.034290    
   5472.800       1.034011    
   5473.700       1.034968    
   5474.600       1.034300    
   5475.500       1.034013    
   5476.400       1.032450    
   5477.300       1.031165    
   5478.200       1.029572    
   5479.100       1.029160    
   5480.000       1.030241    
   5480.900       1.033201    
   5481.800       1.032668    
   5482.700       1.031751    
   5483.600       1.032058    
   5484.500       1.032419    
   5485.400       1.033091    
   5486.300       1.032141    
   5487.200       1.032326    
   5488.100       1.030683    
   5489.000       1.029402    
   5489.900       1.029770    
   5490.800       1.030262    
   5491.700       1.029709    
   5492.600       1.029312    
   5493.500       1.027613    
   5494.400       1.027436    
   5495.300       1.028460    
   5496.200       1.030740    
   5497.100       1.030643    
   5498.000       1.031653    
   5498.900       1.031338    
   5499.800       1.029047    
   5500.700       1.026964    
   5501.600       1.026775    
   5502.500       1.025997    
   5503.400       1.025409    
   5504.300       1.024460    
   5505.200       1.024914    
   5506.100       1.023553    
   5507.000       1.020433    
   5507.900       1.017567    
   5508.800       1.017555    
   5509.700       1.018977    
   5510.600       1.019768    
   5511.500       1.019686    
   5512.400       1.018284    
   5513.300       1.017547    
   5514.200       1.017235    
   5515.100       1.017540    
   5516.000       1.017210    
   5516.900       1.017602    
   5517.800       1.016106    
   5518.700       1.013235    
   5519.600       1.011353    
   5520.500       1.012281    
   5521.400       1.012233    
   5522.300       1.012910    
   5523.200       1.014031    
   5524.100       1.012179    
   5525.000       1.009476    
   5525.900       1.007515    
   5526.800       1.003400    
   5527.700       1.000663    
   5528.600       1.000461    
   5529.500       1.003615    
   5530.400       1.007301    
   5531.300       1.009620    
   5532.200       1.009202    
   5533.100       1.007748    
   5534.000       1.004548    
   5534.900       1.004307    
   5535.800       1.005783    
   5536.700       1.008080    
   5537.600       1.009174    
   5538.500       1.008555    
   5539.400       1.006846    
   5540.300       1.005433    
   5541.200       1.004653    
   5542.100       1.002894    
   5543.000       1.001315    
   5543.900      0.9994952    
   5544.800      0.9982995    
   5545.700      0.9964008    
   5546.600      0.9973212    
   5547.500      0.9990015    
   5548.400       1.000196    
   5549.300      0.9983963    
   5550.200      0.9968787    
   5551.100      0.9957076    
   5552.000      0.9940175    
   5552.900      0.9941370    
   5553.800      0.9982865    
   5554.700       1.000133    
   5555.600      0.9984879    
   5556.500      0.9947817    
   5557.400      0.9951909    
   5558.300      0.9985955    
   5559.200       1.000849    
   5560.100      0.9988668    
   5561.000      0.9972237    
   5561.900      0.9984027    
   5562.800      0.9981531    
   5563.700      0.9944354    
   5564.600      0.9953859    
   5565.500      0.9987060    
   5566.400      0.9992854    
   5567.300      0.9968923    
   5568.200      0.9963171    
   5569.100      0.9991666    
   5570.000      0.9969432    
   5570.900      0.9897224    
   5571.800      0.9848722    
   5572.700      0.9855533    
   5573.600      0.9875035    
   5574.500      0.9912567    
   5575.400      0.9914932    
   5576.300      0.9896432    
   5577.200      0.9896680    
   5578.100      0.9888616    
   5579.000      0.9859091    
   5579.900      0.9834039    
   5580.800      0.9810361    
   5581.700      0.9798326    
   5582.600      0.9780717    
   5583.500      0.9808484    
   5584.400      0.9851056    
   5585.300      0.9848945    
   5586.200      0.9803730    
   5587.100      0.9756928    
   5588.000      0.9722748    
   5588.900      0.9737410    
   5589.800      0.9794103    
   5590.700      0.9882110    
   5591.600      0.9909448    
   5592.500      0.9860800    
   5593.400      0.9811147    
   5594.300      0.9803521    
   5595.200      0.9801900    
   5596.100      0.9798594    
   5597.000      0.9776893    
   5597.900      0.9752280    
   5598.800      0.9752622    
   5599.700      0.9739266    
   5600.600      0.9732645    
   5601.500      0.9723683    
   5602.400      0.9712189    
   5603.300      0.9739511    
   5604.200      0.9808151    
   5605.100      0.9818159    
   5606.000      0.9790915    
   5606.900      0.9754133    
   5607.800      0.9734355    
   5608.700      0.9733284    
   5609.600      0.9727122    
   5610.500      0.9719536    
   5611.400      0.9749625    
   5612.300      0.9754427    
   5613.200      0.9738487    
   5614.100      0.9710180    
   5615.000      0.9680128    
   5615.900      0.9661192    
   5616.800      0.9688720    
   5617.700      0.9751068    
   5618.600      0.9774085    
   5619.500      0.9737853    
   5620.400      0.9705288    
   5621.300      0.9678251    
   5622.200      0.9683346    
   5623.100      0.9685510    
   5624.000      0.9675675    
   5624.900      0.9663618    
   5625.800      0.9665561    
   5626.700      0.9694655    
   5627.600      0.9699600    
   5628.500      0.9681224    
   5629.400      0.9656443    
   5630.300      0.9645525    
   5631.200      0.9658060    
   5632.100      0.9682262    
   5633.000      0.9673632    
   5633.900      0.9647970    
   5634.800      0.9617371    
   5635.700      0.9610478    
   5636.600      0.9600636    
   5637.500      0.9595510    
   5638.400      0.9603979    
   5639.300      0.9600568    
   5640.200      0.9581339    
   5641.100      0.9566233    
   5642.000      0.9560125    
   5642.900      0.9604605    
   5643.800      0.9625280    
   5644.700      0.9618462    
   5645.600      0.9612992    
   5646.500      0.9585443    
   5647.400      0.9538225    
   5648.300      0.9540636    
   5649.200      0.9549971    
   5650.100      0.9554078    
   5651.000      0.9587026    
   5651.900      0.9602385    
   5652.800      0.9568722    
   5653.700      0.9557956    
   5654.600      0.9557004    
   5655.500      0.9519454    
   5656.400      0.9504297    
   5657.300      0.9475452    
   5658.200      0.9475390    
   5659.100      0.9520677    
   5660.000      0.9559332    
   5660.900      0.9567172    
   5661.800      0.9563522    
   5662.700      0.9516884    
   5663.600      0.9462010    
   5664.500      0.9466121    
   5665.400      0.9531025    
   5666.300      0.9576887    
   5667.200      0.9566428    
   5668.100      0.9476793    
   5669.000      0.9372113    
   5669.900      0.9366089    
   5670.800      0.9435994    
   5671.700      0.9468089    
   5672.600      0.9464988    
   5673.500      0.9473393    
   5674.400      0.9483908    
   5675.300      0.9432827    
   5676.200      0.9447154    
   5677.100      0.9484677    
   5678.000      0.9459372    
   5678.900      0.9416709    
   5679.800      0.9412301    
   5680.700      0.9417735    
   5681.600      0.9377323    
   5682.500      0.9337303    
   5683.400      0.9343276    
   5684.300      0.9358588    
   5685.200      0.9356290    
   5686.100      0.9335731    
   5687.000      0.9289082    
   5687.900      0.9315682    
   5688.800      0.9390292    
   5689.700      0.9425325    
   5690.600      0.9399667    
   5691.500      0.9351169    
   5692.400      0.9320151    
   5693.300      0.9370087    
   5694.200      0.9430144    
   5695.100      0.9423091    
   5696.000      0.9391163    
   5696.900      0.9365962    
   5697.800      0.9333501    
   5698.700      0.9341606    
   5699.600      0.9329588    
   5700.500      0.9300976    
   5701.400      0.9321902    
   5702.300      0.9387086    
   5703.200      0.9399984    
   5704.100      0.9380018    
   5705.000      0.9343358    
   5705.900      0.9300507    
   5706.800      0.9265175    
   5707.700      0.9298618    
   5708.600      0.9352332    
   5709.500      0.9363346    
   5710.400      0.9359615    
   5711.300      0.9358388    
   5712.200      0.9333620    
   5713.100      0.9300349    
   5714.000      0.9323202    
   5714.900      0.9342405    
   5715.800      0.9324406    
   5716.700      0.9307184    
   5717.600      0.9289925    
   5718.500      0.9265594    
   5719.400      0.9289099    
   5720.300      0.9282873    
   5721.200      0.9251878    
   5722.100      0.9242051    
   5723.000      0.9264678    
   5723.900      0.9266842    
   5724.800      0.9263809    
   5725.700      0.9274884    
   5726.600      0.9263485    
   5727.500      0.9252798    
   5728.400      0.9274544    
   5729.300      0.9285591    
   5730.200      0.9287739    
   5731.100      0.9281124    
   5732.000      0.9244145    
   5732.900      0.9197392    
   5733.800      0.9186967    
   5734.700      0.9216695    
   5735.600      0.9215846    
   5736.500      0.9171900    
   5737.400      0.9203597    
   5738.300      0.9242229    
   5739.200      0.9237580    
   5740.100      0.9223398    
   5741.000      0.9193510    
   5741.900      0.9148932    
   5742.800      0.9102603    
   5743.700      0.9117627    
   5744.600      0.9142758    
   5745.500      0.9151385    
   5746.400      0.9164923    
   5747.300      0.9155082    
   5748.200      0.9148607    
   5749.100      0.9137316    
   5750.000      0.9140794    
   5750.900      0.9176101    
   5751.800      0.9131064    
   5752.700      0.9085496    
   5753.600      0.9085904    
   5754.500      0.9124414    
   5755.400      0.9114943    
   5756.300      0.9072327    
   5757.200      0.9065433    
   5758.100      0.9070126    
   5759.000      0.9067055    
   5759.900      0.9091498    
   5760.800      0.9091966    
   5761.700      0.9077429    
   5762.600      0.9044784    
   5763.500      0.9042304    
   5764.400      0.9058546    
   5765.300      0.9050265    
   5766.200      0.9039288    
   5767.100      0.9030989    
   5768.000      0.9057013    
   5768.900      0.9116997    
   5769.800      0.9119172    
   5770.700      0.9077768    
   5771.600      0.9052330    
   5772.500      0.9039080    
   5773.400      0.9067521    
   5774.300      0.9079843    
   5775.200      0.9060544    
   5776.100      0.9025919    
   5777.000      0.9014294    
   5777.900      0.8998708    
   5778.800      0.8979559    
   5779.700      0.8978617    
   5780.600      0.8969782    
   5781.500      0.8955042    
   5782.400      0.8993659    
   5783.300      0.9014821    
   5784.200      0.9018245    
   5785.100      0.9031653    
   5786.000      0.9011998    
   5786.900      0.8982052    
   5787.800      0.8999882    
   5788.700      0.8994252    
   5789.600      0.8935035    
   5790.500      0.8934535    
   5791.400      0.8959624    
   5792.300      0.8895990    
   5793.200      0.8853883    
   5794.100      0.8877597    
   5795.000      0.8925722    
   5795.900      0.8960369    
   5796.800      0.8939128    
   5797.700      0.8911674    
   5798.600      0.8907760    
   5799.500      0.8906476    
   5800.400      0.8913061    
   5801.300      0.8898349    
   5802.200      0.8899167    
   5803.100      0.8915491    
   5804.000      0.8894542    
   5804.900      0.8879089    
   5805.800      0.8900370    
   5806.700      0.8952790    
   5807.600      0.8951553    
   5808.500      0.8942844    
   5809.400      0.8957331    
   5810.300      0.8937440    
   5811.200      0.8916674    
   5812.100      0.8957109    
   5813.000      0.9001969    
   5813.900      0.8986973    
   5814.800      0.8920051    
   5815.700      0.8911355    
   5816.600      0.8919019    
   5817.500      0.8926003    
   5818.400      0.8921927    
   5819.300      0.8906209    
   5820.200      0.8914788    
   5821.100      0.8938196    
   5822.000      0.8951702    
   5822.900      0.8968219    
   5823.800      0.8952240    
   5824.700      0.8923216    
   5825.600      0.8902426    
   5826.500      0.8906015    
   5827.400      0.8939952    
   5828.300      0.8927323    
   5829.200      0.8924718    
   5830.100      0.8955914    
   5831.000      0.8982660    
   5831.900      0.8963670    
   5832.800      0.8930106    
   5833.700      0.8893709    
   5834.600      0.8867496    
   5835.500      0.8881662    
   5836.400      0.8911012    
   5837.300      0.8870775    
   5838.200      0.8816878    
   5839.100      0.8794017    
   5840.000      0.8820599    
   5840.900      0.8848844    
   5841.800      0.8862991    
   5842.700      0.8891044    
   5843.600      0.8899679    
   5844.500      0.8865305    
   5845.400      0.8840965    
   5846.300      0.8836458    
   5847.200      0.8844277    
   5848.100      0.8825817    
   5849.000      0.8815356    
   5849.900      0.8840523    
   5850.800      0.8867450    
   5851.700      0.8834109    
   5852.600      0.8762953    
   5853.500      0.8739410    
   5854.400      0.8754643    
   5855.300      0.8764263    
   5856.200      0.8761641    
   5857.100      0.8721443    
   5858.000      0.8685651    
   5858.900      0.8705425    
   5859.800      0.8737993    
   5860.700      0.8782243    
   5861.600      0.8796378    
   5862.500      0.8758945    
   5863.400      0.8697891    
   5864.300      0.8667547    
   5865.200      0.8689514    
   5866.100      0.8730605    
   5867.000      0.8738288    
   5867.900      0.8705111    
   5868.800      0.8658786    
   5869.700      0.8670534    
   5870.600      0.8688455    
   5871.500      0.8709921    
   5872.400      0.8722830    
   5873.300      0.8685507    
   5874.200      0.8618613    
   5875.100      0.8606026    
   5876.000      0.8640589    
   5876.900      0.8655937    
   5877.800      0.8654540    
   5878.700      0.8692295    
   5879.600      0.8702148    
   5880.500      0.8686379    
   5881.400      0.8673400    
   5882.300      0.8652753    
   5883.200      0.8644248    
   5884.100      0.8612256    
   5885.000      0.8604780    
   5885.900      0.8634238    
   5886.800      0.8623292    
   5887.700      0.8537007    
   5888.600      0.8369173    
   5889.500      0.8150765    
   5890.400      0.8089584    
   5891.300      0.8245898    
   5892.200      0.8464312    
   5893.100      0.8576312    
   5894.000      0.8567524    
   5894.900      0.8419541    
   5895.800      0.8238227    
   5896.700      0.8231843    
   5897.600      0.8391235    
   5898.500      0.8537341    
   5899.400      0.8575078    
   5900.300      0.8547307    
   5901.200      0.8547817    
   5902.100      0.8530129    
   5903.000      0.8530172    
   5903.900      0.8556499    
   5904.800      0.8568351    
   5905.700      0.8549520    
   5906.600      0.8512645    
   5907.500      0.8507738    
   5908.400      0.8512570    
   5909.300      0.8469755    
   5910.200      0.8438711    
   5911.100      0.8452291    
   5912.000      0.8477792    
   5912.900      0.8503464    
   5913.800      0.8513165    
   5914.700      0.8512421    
   5915.600      0.8481671    
   5916.500      0.8492895    
   5917.400      0.8542747    
   5918.300      0.8547077    
   5919.200      0.8488712    
   5920.100      0.8434576    
   5921.000      0.8416203    
   5921.900      0.8421999    
   5922.800      0.8412490    
   5923.700      0.8432965    
   5924.600      0.8458796    
   5925.500      0.8473685    
   5926.400      0.8485626    
   5927.300      0.8487138    
   5928.200      0.8443663    
   5929.100      0.8391332    
   5930.000      0.8387426    
   5930.900      0.8414340    
   5931.800      0.8422136    
   5932.700      0.8412795    
   5933.600      0.8391409    
   5934.500      0.8396014    
   5935.400      0.8389224    
   5936.300      0.8406717    
   5937.200      0.8444808    
   5938.100      0.8432828    
   5939.000      0.8405793    
   5939.900      0.8384550    
   5940.800      0.8346896    
   5941.700      0.8321000    
   5942.600      0.8335056    
   5943.500      0.8355264    
   5944.400      0.8363650    
   5945.300      0.8353671    
   5946.200      0.8335153    
   5947.100      0.8302131    
   5948.000      0.8305712    
   5948.900      0.8331049    
   5949.800      0.8352845    
   5950.700      0.8369545    
   5951.600      0.8364935    
   5952.500      0.8385370    
   5953.400      0.8444749    
   5954.300      0.8446999    
   5955.200      0.8391294    
   5956.100      0.8313473    
   5957.000      0.8295677    
   5957.900      0.8315691    
   5958.800      0.8340218    
   5959.700      0.8365424    
   5960.600      0.8370611    
   5961.500      0.8371109    
   5962.400      0.8375868    
   5963.300      0.8344303    
   5964.200      0.8342328    
   5965.100      0.8367543    
   5966.000      0.8375508    
   5966.900      0.8356506    
   5967.800      0.8330938    
   5968.700      0.8301289    
   5969.600      0.8267977    
   5970.500      0.8266984    
   5971.400      0.8259487    
   5972.300      0.8263345    
   5973.200      0.8295761    
   5974.100      0.8305917    
   5975.000      0.8270827    
   5975.900      0.8258058    
   5976.800      0.8261462    
   5977.700      0.8287321    
   5978.600      0.8304079    
   5979.500      0.8282127    
   5980.400      0.8230158    
   5981.300      0.8226662    
   5982.200      0.8258049    
   5983.100      0.8268667    
   5984.000      0.8256370    
   5984.900      0.8254733    
   5985.800      0.8258504    
   5986.700      0.8274081    
   5987.600      0.8269770    
   5988.500      0.8253982    
   5989.400      0.8223392    
   5990.300      0.8215075    
   5991.200      0.8244570    
   5992.100      0.8264295    
   5993.000      0.8257613    
   5993.900      0.8234915    
   5994.800      0.8219931    
   5995.700      0.8238785    
   5996.600      0.8210907    
   5997.500      0.8154910    
   5998.400      0.8153342    
   5999.300      0.8155350    
   6000.200      0.8152216    
   6001.100      0.8160062    
   6002.000      0.8169230    
   6002.900      0.8165777    
   6003.800      0.8171813    
   6004.700      0.8177872    
   6005.600      0.8170316    
   6006.500      0.8155977    
   6007.400      0.8175228    
   6008.300      0.8206208    
   6009.200      0.8217406    
   6010.100      0.8174191    
   6011.000      0.8120995    
   6011.900      0.8115847    
   6012.800      0.8140109    
   6013.700      0.8123094    
   6014.600      0.8083749    
   6015.500      0.8094304    
   6016.400      0.8175063    
   6017.300      0.8201582    
   6018.200      0.8182732    
   6019.100      0.8170401    
   6020.000      0.8197692    
   6020.900      0.8224086    
   6021.800      0.8201280    
   6022.700      0.8160796    
   6023.600      0.8153515    
   6024.500      0.8165010    
   6025.400      0.8169748    
   6026.300      0.8162012    
   6027.200      0.8153999    
   6028.100      0.8153319    
   6029.000      0.8140373    
   6029.900      0.8141069    
   6030.800      0.8144457    
   6031.700      0.8136982    
   6032.600      0.8125677    
   6033.500      0.8131672    
   6034.400      0.8110909    
   6035.300      0.8089525    
   6036.200      0.8084998    
   6037.100      0.8094096    
   6038.000      0.8086482    
   6038.900      0.8066319    
   6039.800      0.8046292    
   6040.700      0.8057256    
   6041.600      0.8077555    
   6042.500      0.8110206    
   6043.400      0.8139694    
   6044.300      0.8112326    
   6045.200      0.8058555    
   6046.100      0.8059320    
   6047.000      0.8072541    
   6047.900      0.8053404    
   6048.800      0.8013148    
   6049.700      0.7988695    
   6050.600      0.8022638    
   6051.500      0.8087816    
   6052.400      0.8105657    
   6053.300      0.8080789    
   6054.200      0.8065547    
   6055.100      0.8056819    
   6056.000      0.8040044    
   6056.900      0.8012235    
   6057.800      0.8008940    
   6058.700      0.8037580    
   6059.600      0.8043193    
   6060.500      0.8001915    
   6061.400      0.7965207    
   6062.300      0.7933818    
   6063.200      0.7930429    
   6064.100      0.7929336    
   6065.000      0.7912389    
   6065.900      0.7910275    
   6066.800      0.7927597    
   6067.700      0.7925557    
   6068.600      0.7925744    
   6069.500      0.7955642    
   6070.400      0.8016518    
   6071.300      0.8016596    
   6072.200      0.7944641    
   6073.100      0.7894813    
   6074.000      0.7927995    
   6074.900      0.7961625    
   6075.800      0.7961749    
   6076.700      0.7931861    
   6077.600      0.7915225    
   6078.500      0.7909065    
   6079.400      0.7926116    
   6080.300      0.7945980    
   6081.200      0.7958438    
   6082.100      0.7962399    
   6083.000      0.7946504    
   6083.900      0.7943299    
   6084.800      0.7954454    
   6085.700      0.7946713    
   6086.600      0.7927493    
   6087.500      0.7931272    
   6088.400      0.7913958    
   6089.300      0.7901576    
   6090.200      0.7908685    
   6091.100      0.7921667    
   6092.000      0.7909778    
   6092.900      0.7889016    
   6093.800      0.7888954    
   6094.700      0.7913442    
   6095.600      0.7918945    
   6096.500      0.7912819    
   6097.400      0.7898312    
   6098.300      0.7901415    
   6099.200      0.7887225    
   6100.100      0.7866646    
   6101.000      0.7875152    
   6101.900      0.7883482    
   6102.800      0.7870566    
   6103.700      0.7883542    
   6104.600      0.7900879    
   6105.500      0.7899638    
   6106.400      0.7861002    
   6107.300      0.7818004    
   6108.200      0.7822607    
   6109.100      0.7848202    
   6110.000      0.7846516    
   6110.900      0.7841031    
   6111.800      0.7831260    
   6112.700      0.7814670    
   6113.600      0.7825137    
   6114.500      0.7853588    
   6115.400      0.7860842    
   6116.300      0.7836823    
   6117.200      0.7829418    
   6118.100      0.7833475    
   6119.000      0.7826997    
   6119.900      0.7814704    
   6120.800      0.7813733    
   6121.700      0.7826908    
   6122.600      0.7842705    
   6123.500      0.7829483    
   6124.400      0.7811581    
   6125.300      0.7792811    
   6126.200      0.7800661    
   6127.100      0.7817270    
   6128.000      0.7833999    
   6128.900      0.7827184    
   6129.800      0.7813681    
   6130.700      0.7811819    
   6131.600      0.7805660    
   6132.500      0.7766111    
   6133.400      0.7734442    
   6134.300      0.7715675    
   6135.200      0.7722933    
   6136.100      0.7740354    
   6137.000      0.7749780    
   6137.900      0.7756246    
   6138.800      0.7778687    
   6139.700      0.7794139    
   6140.600      0.7769867    
   6141.500      0.7744468    
   6142.400      0.7767166    
   6143.300      0.7799321    
   6144.200      0.7772691    
   6145.100      0.7745709    
   6146.000      0.7771640    
   6146.900      0.7826873    
   6147.800      0.7823769    
   6148.700      0.7790727    
   6149.600      0.7769725    
   6150.500      0.7755809    
   6151.400      0.7731318    
   6152.300      0.7705848    
   6153.200      0.7698209    
   6154.100      0.7706769    
   6155.000      0.7724002    
   6155.900      0.7718264    
   6156.800      0.7684153    
   6157.700      0.7687829    
   6158.600      0.7709994    
   6159.500      0.7721382    
   6160.400      0.7722721    
   6161.300      0.7709715    
   6162.200      0.7677359    
   6163.100      0.7657155    
   6164.000      0.7653654    
   6164.900      0.7682680    
   6165.800      0.7694434    
   6166.700      0.7689135    
   6167.600      0.7673557    
   6168.500      0.7676539    
   6169.400      0.7705325    
   6170.300      0.7714252    
   6171.200      0.7697894    
   6172.100      0.7656882    
   6173.000      0.7639961    
   6173.900      0.7657181    
   6174.800      0.7660615    
   6175.700      0.7643701    
   6176.600      0.7645874    
   6177.500      0.7654234    
   6178.400      0.7667119    
   6179.300      0.7660481    
   6180.200      0.7632707    
   6181.100      0.7590671    
   6182.000      0.7599882    
   6182.900      0.7651967    
   6183.800      0.7689813    
   6184.700      0.7692475    
   6185.600      0.7681203    
   6186.500      0.7670460    
   6187.400      0.7677057    
   6188.300      0.7646398    
   6189.200      0.7611369    
   6190.100      0.7617663    
   6191.000      0.7627384    
   6191.900      0.7613436    
   6192.800      0.7598269    
   6193.700      0.7568572    
   6194.600      0.7563539    
   6195.500      0.7608976    
   6196.400      0.7663196    
   6197.300      0.7662991    
   6198.200      0.7628933    
   6199.100      0.7623373    
   6200.000      0.7627864    
   6200.900      0.7640033    
   6201.800      0.7632200    
   6202.700      0.7616822    
   6203.600      0.7609798    
   6204.500      0.7626072    
   6205.400      0.7618651    
   6206.300      0.7562723    
   6207.200      0.7532081    
   6208.100      0.7544624    
   6209.000      0.7546080    
   6209.900      0.7530849    
   6210.800      0.7503771    
   6211.700      0.7496573    
   6212.600      0.7495450    
   6213.500      0.7479621    
   6214.400      0.7444255    
   6215.300      0.7445874    
   6216.200      0.7497249    
   6217.100      0.7538799    
   6218.000      0.7534733    
   6218.900      0.7514173    
   6219.800      0.7491040    
   6220.700      0.7494003    
   6221.600      0.7477272    
   6222.500      0.7457353    
   6223.400      0.7450668    
   6224.300      0.7448877    
   6225.200      0.7443349    
   6226.100      0.7429339    
   6227.000      0.7420149    
   6227.900      0.7421051    
   6228.800      0.7415553    
   6229.700      0.7401695    
   6230.600      0.7385691    
   6231.500      0.7415886    
   6232.400      0.7512546    
   6233.300      0.7529342    
   6234.200      0.7471280    
   6235.100      0.7437162    
   6236.000      0.7443294    
   6236.900      0.7447760    
   6237.800      0.7453637    
   6238.700      0.7479300    
   6239.600      0.7499405    
   6240.500      0.7476287    
   6241.400      0.7464944    
   6242.300      0.7446342    
   6243.200      0.7424148    
   6244.100      0.7406119    
   6245.000      0.7389894    
   6245.900      0.7375264    
   6246.800      0.7398001    
   6247.700      0.7446452    
   6248.600      0.7459770    
   6249.500      0.7455008    
   6250.400      0.7461519    
   6251.300      0.7431244    
   6252.200      0.7422693    
   6253.100      0.7468195    
   6254.000      0.7493262    
   6254.900      0.7492357    
   6255.800      0.7469043    
   6256.700      0.7457116    
   6257.600      0.7447338    
   6258.500      0.7447000    
   6259.400      0.7451623    
   6260.300      0.7432615    
   6261.200      0.7408603    
   6262.100      0.7383834    
   6263.000      0.7378744    
   6263.900      0.7397915    
   6264.800      0.7389960    
   6265.700      0.7389377    
   6266.600      0.7411224    
   6267.500      0.7421902    
   6268.400      0.7402948    
   6269.300      0.7362782    
   6270.200      0.7362186    
   6271.100      0.7379222    
   6272.000      0.7374879    
   6272.900      0.7386959    
   6273.800      0.7386401    
   6274.700      0.7396581    
   6275.600      0.7401300    
   6276.500      0.7385702    
   6277.400      0.7350996    
   6278.300      0.7329271    
   6279.200      0.7356476    
   6280.100      0.7370707    
   6281.000      0.7339934    
   6281.900      0.7336848    
   6282.800      0.7332295    
   6283.700      0.7352672    
   6284.600      0.7376387    
   6285.500      0.7346824    
   6286.400      0.7324853    
   6287.300      0.7316937    
   6288.200      0.7349473    
   6289.100      0.7352717    
   6290.000      0.7327508    
   6290.900      0.7327928    
   6291.800      0.7352721    
   6292.700      0.7359279    
   6293.600      0.7325838    
   6294.500      0.7282516    
   6295.400      0.7271053    
   6296.300      0.7269426    
   6297.200      0.7276723    
   6298.100      0.7267627    
   6299.000      0.7273713    
   6299.900      0.7275224    
   6300.800      0.7242330    
   6301.700      0.7213197    
   6302.600      0.7212785    
   6303.500      0.7228306    
   6304.400      0.7238269    
   6305.300      0.7240093    
   6306.200      0.7245937    
   6307.100      0.7220632    
   6308.000      0.7203493    
   6308.900      0.7236894    
   6309.800      0.7265229    
   6310.700      0.7272406    
   6311.600      0.7280171    
   6312.500      0.7297516    
   6313.400      0.7300418    
   6314.300      0.7276067    
   6315.200      0.7256006    
   6316.100      0.7235618    
   6317.000      0.7245703    
   6317.900      0.7294310    
   6318.800      0.7286355    
   6319.700      0.7241217    
   6320.600      0.7198914    
   6321.500      0.7230691    
   6322.400      0.7240037    
   6323.300      0.7200826    
   6324.200      0.7148209    
   6325.100      0.7130035    
   6326.000      0.7172074    
   6326.900      0.7221509    
   6327.800      0.7214683    
   6328.700      0.7203752    
   6329.600      0.7210968    
   6330.500      0.7241833    
   6331.400      0.7245679    
   6332.300      0.7205157    
   6333.200      0.7186411    
   6334.100      0.7210279    
   6335.000      0.7216267    
   6335.900      0.7225279    
   6336.800      0.7230104    
   6337.700      0.7235174    
   6338.600      0.7239543    
   6339.500      0.7245857    
   6340.400      0.7252047    
   6341.300      0.7216519    
   6342.200      0.7169229    
   6343.100      0.7132135    
   6344.000      0.7128972    
   6344.900      0.7147841    
   6345.800      0.7131438    
   6346.700      0.7064613    
   6347.600      0.7023485    
   6348.500      0.7053000    
   6349.400      0.7113407    
   6350.300      0.7131440    
   6351.200      0.7137661    
   6352.100      0.7121313    
   6353.000      0.7092884    
   6353.900      0.7083599    
   6354.800      0.7062092    
   6355.700      0.7024947    
   6356.600      0.7014696    
   6357.500      0.7024983    
   6358.400      0.7039672    
   6359.300      0.7022349    
   6360.200      0.6996225    
   6361.100      0.6976221    
   6362.000      0.6977946    
   6362.900      0.6992549    
   6363.800      0.6998313    
   6364.700      0.7000427    
   6365.600      0.6978213    
   6366.500      0.6959131    
   6367.400      0.6979670    
   6368.300      0.6978951    
   6369.200      0.6982956    
   6370.100      0.6984183    
   6371.000      0.6957607    
   6371.900      0.6938705    
   6372.800      0.6930412    
   6373.700      0.6967970    
   6374.600      0.7014250    
   6375.500      0.7043833    
   6376.400      0.7056689    
   6377.300      0.7016910    
   6378.200      0.6972759    
   6379.100      0.6973286    
   6380.000      0.6983870    
   6380.900      0.6973544    
   6381.800      0.6963750    
   6382.700      0.6969075    
   6383.600      0.6950917    
   6384.500      0.6949346    
   6385.400      0.6984834    
   6386.300      0.7004390    
   6387.200      0.6991138    
   6388.100      0.6994371    
   6389.000      0.7019607    
   6389.900      0.7030486    
   6390.800      0.7034691    
   6391.700      0.7039098    
   6392.600      0.7018536    
   6393.500      0.7029689    
   6394.400      0.7041848    
   6395.300      0.7014680    
   6396.200      0.6972436    
   6397.100      0.6938106    
   6398.000      0.6921855    
   6398.900      0.6894375    
   6399.800      0.6899204    
   6400.700      0.6934980    
   6401.600      0.6973042    
   6402.500      0.6960340    
   6403.400      0.6920879    
   6404.300      0.6899475    
   6405.200      0.6914033    
   6406.100      0.6938193    
   6407.000      0.6956810    
   6407.900      0.6936160    
   6408.800      0.6905882    
   6409.700      0.6905783    
   6410.600      0.6924049    
   6411.500      0.6937988    
   6412.400      0.6950499    
   6413.300      0.6935223    
   6414.200      0.6930426    
   6415.100      0.6931025    
   6416.000      0.6907214    
   6416.900      0.6888664    
   6417.800      0.6907620    
   6418.700      0.6908960    
   6419.600      0.6900125    
   6420.500      0.6874671    
   6421.400      0.6854918    
   6422.300      0.6852957    
   6423.200      0.6860564    
   6424.100      0.6861567    
   6425.000      0.6875404    
   6425.900      0.6901799    
   6426.800      0.6903548    
   6427.700      0.6895261    
   6428.600      0.6893842    
   6429.500      0.6911749    
   6430.400      0.6941923    
   6431.300      0.6942967    
   6432.200      0.6910888    
   6433.100      0.6879152    
   6434.000      0.6866593    
   6434.900      0.6860173    
   6435.800      0.6822221    
   6436.700      0.6789604    
   6437.600      0.6777898    
   6438.500      0.6768488    
   6439.400      0.6742123    
   6440.300      0.6746600    
   6441.200      0.6781557    
   6442.100      0.6805610    
   6443.000      0.6785259    
   6443.900      0.6786388    
   6444.800      0.6814770    
   6445.700      0.6833000    
   6446.600      0.6817380    
   6447.500      0.6803587    
   6448.400      0.6796378    
   6449.300      0.6795117    
   6450.200      0.6795265    
   6451.100      0.6788012    
   6452.000      0.6780007    
   6452.900      0.6776955    
   6453.800      0.6750187    
   6454.700      0.6702791    
   6455.600      0.6664943    
   6456.500      0.6648257    
   6457.400      0.6671696    
   6458.300      0.6686541    
   6459.200      0.6679845    
   6460.100      0.6671576    
   6461.000      0.6686835    
   6461.900      0.6676384    
   6462.800      0.6637530    
   6463.700      0.6628782    
   6464.600      0.6645224    
   6465.500      0.6643723    
   6466.400      0.6647246    
   6467.300      0.6664064    
   6468.200      0.6679921    
   6469.100      0.6664933    
   6470.000      0.6630132    
   6470.900      0.6604242    
   6471.800      0.6605353    
   6472.700      0.6622555    
   6473.600      0.6616723    
   6474.500      0.6576284    
   6475.400      0.6555152    
   6476.300      0.6554171    
   6477.200      0.6540483    
   6478.100      0.6523797    
   6479.000      0.6532905    
   6479.900      0.6528606    
   6480.800      0.6536403    
   6481.700      0.6559290    
   6482.600      0.6548288    
   6483.500      0.6519502    
   6484.400      0.6503042    
   6485.300      0.6488739    
   6486.200      0.6478043    
   6487.100      0.6486039    
   6488.000      0.6501973    
   6488.900      0.6510673    
   6489.800      0.6481175    
   6490.700      0.6453410    
   6491.600      0.6458055    
   6492.500      0.6473416    
   6493.400      0.6471147    
   6494.300      0.6455008    
   6495.200      0.6435990    
   6496.100      0.6417461    
   6497.000      0.6385735    
   6497.900      0.6396067    
   6498.800      0.6436579    
   6499.700      0.6469200    
   6500.600      0.6483806    
   6501.500      0.6483020    
   6502.400      0.6454651    
   6503.300      0.6425047    
   6504.200      0.6418061    
   6505.100      0.6440601    
   6506.000      0.6445247    
   6506.900      0.6440793    
   6507.800      0.6448334    
   6508.700      0.6440830    
   6509.600      0.6410927    
   6510.500      0.6405822    
   6511.400      0.6408268    
   6512.300      0.6400979    
   6513.200      0.6394159    
   6514.100      0.6359362    
   6515.000      0.6327766    
   6515.900      0.6327540    
   6516.800      0.6332909    
   6517.700      0.6331462    
   6518.600      0.6347089    
   6519.500      0.6371914    
   6520.400      0.6373506    
   6521.300      0.6347678    
   6522.200      0.6336558    
   6523.100      0.6333892    
   6524.000      0.6314549    
   6524.900      0.6279274    
   6525.800      0.6249632    
   6526.700      0.6226751    
   6527.600      0.6207986    
   6528.500      0.6196039    
   6529.400      0.6203043    
   6530.300      0.6191444    
   6531.200      0.6160125    
   6532.100      0.6126297    
   6533.000      0.6107309    
   6533.900      0.6106013    
   6534.800      0.6107402    
   6535.700      0.6092810    
   6536.600      0.6069190    
   6537.500      0.6024038    
   6538.400      0.5983315    
   6539.300      0.5966032    
   6540.200      0.5962978    
   6541.100      0.5933654    
   6542.000      0.5890273    
   6542.900      0.5856224    
   6543.800      0.5814262    
   6544.700      0.5785863    
   6545.600      0.5764948    
   6546.500      0.5720857    
   6547.400      0.5648442    
   6548.300      0.5582191    
   6549.200      0.5526261    
   6550.100      0.5469252    
   6551.000      0.5384710    
   6551.900      0.5293651    
   6552.800      0.5219784    
   6553.700      0.5156705    
   6554.600      0.5051721    
   6555.500      0.4915849    
   6556.400      0.4789820    
   6557.300      0.4661718    
   6558.200      0.4503303    
   6559.100      0.4319541    
   6560.000      0.4062395    
   6560.900      0.3704863    
   6561.800      0.3327994    
   6562.700      0.3108400    
   6563.600      0.3181366    
   6564.500      0.3521003    
   6565.400      0.3929699    
   6566.300      0.4238179    
   6567.200      0.4445232    
   6568.100      0.4598281    
   6569.000      0.4724717    
   6569.900      0.4852544    
   6570.800      0.4996211    
   6571.700      0.5119630    
   6572.600      0.5204713    
   6573.500      0.5262058    
   6574.400      0.5317806    
   6575.300      0.5381353    
   6576.200      0.5444465    
   6577.100      0.5510183    
   6578.000      0.5592185    
   6578.900      0.5665373    
   6579.800      0.5708302    
   6580.700      0.5742381    
   6581.600      0.5782507    
   6582.500      0.5802297    
   6583.400      0.5810938    
   6584.300      0.5822721    
   6585.200      0.5833479    
   6586.100      0.5831044    
   6587.000      0.5832708    
   6587.900      0.5859756    
   6588.800      0.5904177    
   6589.700      0.5952735    
   6590.600      0.6009207    
   6591.500      0.6041502    
   6592.400      0.6055357    
   6593.300      0.6063645    
   6594.200      0.6078617    
   6595.100      0.6052120    
   6596.000      0.6012563    
   6596.900      0.6025988    
   6597.800      0.6059106    
   6598.700      0.6080180    
   6599.600      0.6095865    
   6600.500      0.6104241    
   6601.400      0.6109073    
   6602.300      0.6116953    
   6603.200      0.6123748    
   6604.100      0.6139297    
   6605.000      0.6160265    
   6605.900      0.6186523    
   6606.800      0.6189423    
   6607.700      0.6179125    
   6608.600      0.6151186    
   6609.500      0.6132534    
   6610.400      0.6125230    
   6611.300      0.6108832    
   6612.200      0.6095852    
   6613.100      0.6104771    
   6614.000      0.6125934    
   6614.900      0.6163197    
   6615.800      0.6174827    
   6616.700      0.6154998    
   6617.600      0.6139663    
   6618.500      0.6140774    
   6619.400      0.6160606    
   6620.300      0.6175196    
   6621.200      0.6151397    
   6622.100      0.6120540    
   6623.000      0.6109655    
   6623.900      0.6122406    
   6624.800      0.6140911    
   6625.700      0.6182986    
   6626.600      0.6194407    
   6627.500      0.6148111    
   6628.400      0.6144021    
   6629.300      0.6161233    
   6630.200      0.6155108    
   6631.100      0.6142785    
   6632.000      0.6133733    
   6632.900      0.6126730    
   6633.800      0.6134848    
   6634.700      0.6145214    
   6635.600      0.6151212    
   6636.500      0.6156234    
   6637.400      0.6139579    
   6638.300      0.6101570    
   6639.200      0.6104544    
   6640.100      0.6146979    
   6641.000      0.6176260    
   6641.900      0.6177029    
   6642.800      0.6145918    
   6643.700      0.6109847    
   6644.600      0.6115735    
   6645.500      0.6130057    
   6646.400      0.6139140    
   6647.300      0.6135461    
   6648.200      0.6142126    
   6649.100      0.6147158    
   6650.000      0.6144779    
   6650.900      0.6139184    
   6651.800      0.6145271    
   6652.700      0.6146610    
   6653.600      0.6136320    
   6654.500      0.6111017    
   6655.400      0.6094260    
   6656.300      0.6105102    
   6657.200      0.6137556    
   6658.100      0.6162596    
   6659.000      0.6156647    
   6659.900      0.6146746    
   6660.800      0.6115379    
   6661.700      0.6096795    
   6662.600      0.6116542    
   6663.500      0.6150687    
   6664.400      0.6155456    
   6665.300      0.6137782    
   6666.200      0.6129911    
   6667.100      0.6142161    
   6668.000      0.6161608    
   6668.900      0.6150226    
   6669.800      0.6121526    
   6670.700      0.6130125    
   6671.600      0.6128674    
   6672.500      0.6128638    
   6673.400      0.6146836    
   6674.300      0.6137545    
   6675.200      0.6115997    
   6676.100      0.6111094    
   6677.000      0.6110475    
   6677.900      0.6134512    
   6678.800      0.6150046    
   6679.700      0.6136233    
   6680.600      0.6119175    
   6681.500      0.6121176    
   6682.400      0.6137953    
   6683.300      0.6135024    
   6684.200      0.6118595    
   6685.100      0.6102574    
   6686.000      0.6108588    
   6686.900      0.6132164    
   6687.800      0.6140678    
   6688.700      0.6140433    
   6689.600      0.6124263    
   6690.500      0.6098701    
   6691.400      0.6077811    
   6692.300      0.6049505    
   6693.200      0.6063052    
   6694.100      0.6088950    
   6695.000      0.6092002    
   6695.900      0.6093379    
   6696.800      0.6106706    
   6697.700      0.6118240    
   6698.600      0.6104786    
   6699.500      0.6078200    
   6700.400      0.6067333    
   6701.300      0.6043752    
   6702.200      0.6041303    
   6703.100      0.6067974    
   6704.000      0.6071718    
   6704.900      0.6049105    
   6705.800      0.6042817    
   6706.700      0.6058329    
   6707.600      0.6064958    
   6708.500      0.6042006    
   6709.400      0.6037508    
   6710.300      0.6052932    
   6711.200      0.6063088    
   6712.100      0.6050302    
   6713.000      0.6024804    
   6713.900      0.6026618    
   6714.800      0.6045084    
   6715.700      0.6073838    
   6716.600      0.6077351    
   6717.500      0.6066459    
   6718.400      0.6068013    
   6719.300      0.6052647    
   6720.200      0.6017559    
   6721.100      0.6003698    
   6722.000      0.6003214    
   6722.900      0.5996454    
   6723.800      0.5988587    
   6724.700      0.6039818    
   6725.600      0.6080073    
   6726.500      0.6043703    
   6727.400      0.5995737    
   6728.300      0.5988986    
   6729.200      0.6001208    
   6730.100      0.6010094    
   6731.000      0.6016550    
   6731.900      0.6031853    
   6732.800      0.6032837    
   6733.700      0.6007056    
   6734.600      0.5970029    
   6735.500      0.5966727    
   6736.400      0.5993184    
   6737.300      0.5997645    
   6738.200      0.5987937    
   6739.100      0.5985379    
   6740.000      0.5975429    
   6740.900      0.5951869    
   6741.800      0.5931674    
   6742.700      0.5956974    
   6743.600      0.5978991    
   6744.500      0.5961962    
   6745.400      0.5951546    
   6746.300      0.5937291    
   6747.200      0.5934604    
   6748.100      0.5947756    
   6749.000      0.5970191    
   6749.900      0.5981628    
   6750.800      0.5961710    
   6751.700      0.5939276    
   6752.600      0.5931623    
   6753.500      0.5934188    
   6754.400      0.5950066    
   6755.300      0.5955855    
   6756.200      0.5968634    
   6757.100      0.5982321    
   6758.000      0.5995747    
   6758.900      0.5999321    
   6759.800      0.5992035    
   6760.700      0.5983948    
   6761.600      0.5963218    
   6762.500      0.5925156    
   6763.400      0.5895709    
   6764.300      0.5881696    
   6765.200      0.5907394    
   6766.100      0.5929040    
   6767.000      0.5942309    
   6767.900      0.5955755    
   6768.800      0.5943662    
   6769.700      0.5929300    
   6770.600      0.5911756    
   6771.500      0.5897287    
   6772.400      0.5884193    
   6773.300      0.5880927    
   6774.200      0.5889955    
   6775.100      0.5892645    
   6776.000      0.5878019    
   6776.900      0.5888136    
   6777.800      0.5909382    
   6778.700      0.5923266    
   6779.600      0.5921175    
   6780.500      0.5915782    
   6781.400      0.5908312    
   6782.300      0.5911185    
   6783.200      0.5918074    
   6784.100      0.5905935    
   6785.000      0.5896410    
   6785.900      0.5920034    
   6786.800      0.5935681    
   6787.700      0.5925498    
   6788.600      0.5915310    
   6789.500      0.5918789    
   6790.400      0.5912744    
   6791.300      0.5902306    
   6792.200      0.5898629    
   6793.100      0.5904887    
   6794.000      0.5914701    
   6794.900      0.5894186    
   6795.800      0.5846715    
   6796.700      0.5829082    
   6797.600      0.5821426    
   6798.500      0.5833653    
   6799.400      0.5872435    
   6800.300      0.5902501    
   6801.200      0.5925875    
   6802.100      0.5911348    
   6803.000      0.5876178    
   6803.900      0.5859119    
   6804.800      0.5857422    
   6805.700      0.5876471    
   6806.600      0.5895973    
   6807.500      0.5896786    
   6808.400      0.5889831    
   6809.300      0.5869457    
   6810.200      0.5862291    
   6811.100      0.5851569    
   6812.000      0.5842420    
   6812.900      0.5842854    
   6813.800      0.5849395    
   6814.700      0.5856004    
   6815.600      0.5862893    
   6816.500      0.5862505    
   6817.400      0.5851078    
   6818.300      0.5825233    
   6819.200      0.5800110    
   6820.100      0.5768478    
   6821.000      0.5759386    
   6821.900      0.5762022    
   6822.800      0.5770231    
   6823.700      0.5789942    
   6824.600      0.5792822    
   6825.500      0.5771478    
   6826.400      0.5747461    
   6827.300      0.5743176    
   6828.200      0.5755286    
   6829.100      0.5769120    
   6830.000      0.5786275    
   6830.900      0.5800453    
   6831.800      0.5787983    
   6832.700      0.5792149    
   6833.600      0.5796278    
   6834.500      0.5785521    
   6835.400      0.5784808    
   6836.300      0.5807731    
   6837.200      0.5806830    
   6838.100      0.5756630    
   6839.000      0.5709373    
   6839.900      0.5710648    
   6840.800      0.5746573    
   6841.700      0.5784290    
   6842.600      0.5778362    
   6843.500      0.5757776    
   6844.400      0.5753697    
   6845.300      0.5764924    
   6846.200      0.5777307    
   6847.100      0.5766187    
   6848.000      0.5758822    
   6848.900      0.5774599    
   6849.800      0.5752151    
   6850.700      0.5702382    
   6851.600      0.5678470    
   6852.500      0.5689869    
   6853.400      0.5687273    
   6854.300      0.5690436    
   6855.200      0.5724834    
   6856.100      0.5756704    
   6857.000      0.5776278    
   6857.900      0.5772312    
   6858.800      0.5759154    
   6859.700      0.5767156    
   6860.600      0.5759737    
   6861.500      0.5739924    
   6862.400      0.5738133    
   6863.300      0.5721905    
   6864.200      0.5713166    
   6865.100      0.5699635    
   6866.000      0.5687284    
   6866.900      0.5709968    
   6867.800      0.5760162    
   6868.700      0.5751113    
   6869.600      0.5686200    
   6870.500      0.5662296    
   6871.400      0.5666119    
   6872.300      0.5648040    
   6873.200      0.5651577    
   6874.100      0.5667940    
   6875.000      0.5687774    
   6875.900      0.5685996    
   6876.800      0.5664454    
   6877.700      0.5648816    
   6878.600      0.5666874    
   6879.500      0.5697876    
   6880.400      0.5681003    
   6881.300      0.5652074    
   6882.200      0.5666240    
   6883.100      0.5684670    
   6884.000      0.5674093    
   6884.900      0.5638181    
   6885.800      0.5621451    
   6886.700      0.5620150    
   6887.600      0.5600070    
   6888.500      0.5625532    
   6889.400      0.5661053    
   6890.300      0.5642762    
   6891.200      0.5625446    
   6892.100      0.5645111    
   6893.000      0.5639615    
   6893.900      0.5596913    
   6894.800      0.5589183    
   6895.700      0.5598889    
   6896.600      0.5569927    
   6897.500      0.5562146    
   6898.400      0.5609642    
   6899.300      0.5652576    
   6900.200      0.5640626    
   6901.100      0.5597164    
   6902.000      0.5581594    
   6902.900      0.5594994    
   6903.800      0.5611224    
   6904.700      0.5610033    
   6905.600      0.5568336    
   6906.500      0.5553777    
   6907.400      0.5571265    
   6908.300      0.5561990    
   6909.200      0.5526502    
   6910.100      0.5521666    
   6911.000      0.5536708    
   6911.900      0.5546363    
   6912.800      0.5560884    
   6913.700      0.5563995    
   6914.600      0.5547536    
   6915.500      0.5529341    
   6916.400      0.5520354    
   6917.300      0.5522211    
   6918.200      0.5521110    
   6919.100      0.5494407    
   6920.000      0.5501256    
   6920.900      0.5519292    
   6921.800      0.5510595    
   6922.700      0.5503314    
   6923.600      0.5511875    
   6924.500      0.5514447    
   6925.400      0.5516573    
   6926.300      0.5512950    
   6927.200      0.5525798    
   6928.100      0.5551130    
   6929.000      0.5567404    
   6929.900      0.5562134    
   6930.800      0.5551140    
   6931.700      0.5521729    
   6932.600      0.5485640    
   6933.500      0.5490941    
   6934.400      0.5526487    
   6935.300      0.5517697    
   6936.200      0.5473713    
   6937.100      0.5465263    
   6938.000      0.5511740    
   6938.900      0.5547463    
   6939.800      0.5531046    
   6940.700      0.5492504    
   6941.600      0.5467960    
   6942.500      0.5463854    
   6943.400      0.5461600    
   6944.300      0.5466405    
   6945.200      0.5478503    
   6946.100      0.5482874    
   6947.000      0.5491033    
   6947.900      0.5498354    
   6948.800      0.5482386    
   6949.700      0.5469737    
   6950.600      0.5476222    
   6951.500      0.5484032    
   6952.400      0.5470562    
   6953.300      0.5463766    
   6954.200      0.5465173    
   6955.100      0.5452046    
   6956.000      0.5443880    
   6956.900      0.5451257    
   6957.800      0.5447770    
   6958.700      0.5434596    
   6959.600      0.5410724    
   6960.500      0.5387017    
   6961.400      0.5368726    
   6962.300      0.5363110    
   6963.200      0.5364723    
   6964.100      0.5381222    
   6965.000      0.5400733    
   6965.900      0.5420570    
   6966.800      0.5418254    
   6967.700      0.5399104    
   6968.600      0.5394756    
   6969.500      0.5426534    
   6970.400      0.5471089    
   6971.300      0.5487334    
   6972.200      0.5474736    
   6973.100      0.5463669    
   6974.000      0.5447907    
   6974.900      0.5417537    
   6975.800      0.5409307    
   6976.700      0.5426235    
   6977.600      0.5449888    
   6978.500      0.5447237    
   6979.400      0.5419799    
   6980.300      0.5389307    
   6981.200      0.5380330    
   6982.100      0.5385310    
   6983.000      0.5386380    
   6983.900      0.5368707    
   6984.800      0.5379028    
   6985.700      0.5411057    
   6986.600      0.5416337    
   6987.500      0.5409861    
   6988.400      0.5426711    
   6989.300      0.5442212    
   6990.200      0.5437581    
   6991.100      0.5414237    
   6992.000      0.5404971    
   6992.900      0.5421765    
   6993.800      0.5434424    
   6994.700      0.5435154    
   6995.600      0.5441715    
   6996.500      0.5458269    
   6997.400      0.5468951    
   6998.300      0.5450739    
   6999.200      0.5430486    
   7000.100      0.5440880    
   7001.000      0.5443669    
   7001.900      0.5420301    
   7002.800      0.5392971    
   7003.700      0.5405506    
   7004.600      0.5427088    
   7005.500      0.5410702    
   7006.400      0.5400789    
   7007.300      0.5417198    
   7008.200      0.5401996    
   7009.100      0.5381581    
   7010.000      0.5410097    
   7010.900      0.5439612    
   7011.800      0.5424687    
   7012.700      0.5417418    
   7013.600      0.5434896    
   7014.500      0.5447639    
   7015.400      0.5434856    
   7016.300      0.5401750    
   7017.200      0.5368434    
   7018.100      0.5384886    
   7019.000      0.5429883    
   7019.900      0.5445527    
   7020.800      0.5422657    
   7021.700      0.5414770    
   7022.600      0.5430996    
   7023.500      0.5446358    
   7024.400      0.5437641    
   7025.300      0.5420133    
   7026.200      0.5406235    
   7027.100      0.5391439    
   7028.000      0.5387699    
   7028.900      0.5400018    
   7029.800      0.5399116    
   7030.700      0.5372631    
   7031.600      0.5358939    
   7032.500      0.5355211    
   7033.400      0.5361463    
   7034.300      0.5373536    
   7035.200      0.5382175    
   7036.100      0.5374232    
   7037.000      0.5353566    
   7037.900      0.5341336    
   7038.800      0.5368617    
   7039.700      0.5408064    
   7040.600      0.5438279    
   7041.500      0.5449423    
   7042.400      0.5438547    
   7043.300      0.5436031    
   7044.200      0.5453591    
   7045.100      0.5459608    
   7046.000      0.5468736    
   7046.900      0.5481967    
   7047.800      0.5490047    
   7048.700      0.5488666    
   7049.600      0.5469223    
   7050.500      0.5454889    
   7051.400      0.5472844    
   7052.300      0.5483080    
   7053.200      0.5481965    
   7054.100      0.5481480    
   7055.000      0.5467083    
   7055.900      0.5449767    
   7056.800      0.5433524    
   7057.700      0.5421027    
   7058.600      0.5402479    
   7059.500      0.5403100    
   7060.400      0.5431741    
   7061.300      0.5433701    
   7062.200      0.5417175    
   7063.100      0.5432115    
   7064.000      0.5471310    
   7064.900      0.5532761    
   7065.800      0.5576668    
   7066.700      0.5554539    
   7067.600      0.5488061    
   7068.500      0.5456919    
   7069.400      0.5472211    
   7070.300      0.5494450    
   7071.200      0.5492452    
   7072.100      0.5480261    
   7073.000      0.5470924    
   7073.900      0.5493017    
   7074.800      0.5500380    
   7075.700      0.5474252    
   7076.600      0.5451454    
   7077.500      0.5437286    
   7078.400      0.5397199    
   7079.300      0.5341081    
   7080.200      0.5304382    
   7081.100      0.5291601    
   7082.000      0.5264294    
   7082.900      0.5225583    
   7083.800      0.5173090    
   7084.700      0.5126184    
   7085.600      0.5103585    
   7086.500      0.5078723    
   7087.400      0.5058036    
   7088.300      0.5057499    
   7089.200      0.5073585    
   7090.100      0.5065233    
   7091.000      0.5019279    
   7091.900      0.4952171    
   7092.800      0.4899943    
   7093.700      0.4878105    
   7094.600      0.4895632    
   7095.500      0.4916114    
   7096.400      0.4908601    
   7097.300      0.4879346    
   7098.200      0.4931322    
   7099.100      0.5213643    
   7100.000      0.5299538    
   7100.900      0.5319449    
   7101.800      0.5329136    
   7102.700      0.5321062    
   7103.600      0.5323296    
   7104.500      0.5332558    
   7105.400      0.5333472    
   7106.300      0.5319875    
   7107.200      0.5287139    
   7108.100      0.5256938    
   7109.000      0.5239707    
   7109.900      0.5236974    
   7110.800      0.5224432    
   7111.700      0.5198231    
   7112.600      0.5181133    
   7113.500      0.5174047    
   7114.400      0.5159639    
   7115.300      0.5142066    
   7116.200      0.5149372    
   7117.100      0.5171652    
   7118.000      0.5186650    
   7118.900      0.5198395    
   7119.800      0.5204965    
   7120.700      0.5214530    
   7121.600      0.5226513    
   7122.500      0.5247105    
   7123.400      0.5275658    
   7124.300      0.5292286    
   7125.200      0.5291032    
   7126.100      0.5282697    
   7127.000      0.5287516    
   7127.900      0.5315233    
   7128.800      0.5297898    
   7129.700      0.5286846    
   7130.600      0.5299802    
   7131.500      0.5295414    
   7132.400      0.5296372    
   7133.300      0.5293704    
   7134.200      0.5282692    
   7135.100      0.5264207    
   7136.000      0.5262612    
   7136.900      0.5264991    
   7137.800      0.5253920    
   7138.700      0.5240880    
   7139.600      0.5229331    
   7140.500      0.5240837    
   7141.400      0.5252735    
   7142.300      0.5243589    
   7143.200      0.5238339    
   7144.100      0.5241387    
   7145.000      0.5234424    
   7145.900      0.5214558    
   7146.800      0.5202922    
   7147.700      0.5205228    
   7148.600      0.5203170    
   7149.500      0.5197942    
   7150.400      0.5192429    
   7151.300      0.5189139    
   7152.200      0.5187876    
   7153.100      0.5196600    
   7154.000      0.5214881    
   7154.900      0.5215132    
   7155.800      0.5204226    
   7156.700      0.5196118    
   7157.600      0.5197740    
   7158.500      0.5203578    
   7159.400      0.5193156    
   7160.300      0.5192369    
   7161.200      0.5203788    
   7162.100      0.5215434    
   7163.000      0.5222967    
   7163.900      0.5230577    
   7164.800      0.5231836    
   7165.700      0.5218709    
   7166.600      0.5198073    
   7167.500      0.5207303    
   7168.400      0.5221221    
   7169.300      0.5225160    
   7170.200      0.5224099    
   7171.100      0.5218687    
   7172.000      0.5217792    
   7172.900      0.5216119    
   7173.800      0.5225520    
   7174.700      0.5239142    
   7175.600      0.5232077    
   7176.500      0.5220169    
   7177.400      0.5225710    
   7178.300      0.5227575    
   7179.200      0.5212069    
   7180.100      0.5179651    
   7181.000      0.5169600    
   7181.900      0.5187699    
   7182.800      0.5217754    
   7183.700      0.5204111    
   7184.600      0.5141433    
   7185.500      0.5127611    
   7186.400      0.5179477    
   7187.300      0.5218846    
   7188.200      0.5228696    
   7189.100      0.5203571    
   7190.000      0.5160016    
   7190.900      0.5145959    
   7191.800      0.5144902    
   7192.700      0.5162021    
   7193.600      0.5178206    
   7194.500      0.5172967    
   7195.400      0.5156987    
   7196.300      0.5150288    
   7197.200      0.5161299    
   7198.100      0.5163432    
   7199.000      0.5155268    
   7199.900      0.5132785    
   7200.800      0.5106904    
   7201.700      0.5117712    
   7202.600      0.5138723    
   7203.500      0.5139514    
   7204.400      0.5146328    
   7205.300      0.5154571    
   7206.200      0.5158619    
   7207.100      0.5162191    
   7208.000      0.5189196    
   7208.900      0.5182777    
   7209.800      0.5165197    
   7210.700      0.5170343    
   7211.600      0.5182965    
   7212.500      0.5183465    
   7213.400      0.5166826    
   7214.300      0.5143471    
   7215.200      0.5134565    
   7216.100      0.5148831    
   7217.000      0.5170460    
   7217.900      0.5195817    
   7218.800      0.5209167    
   7219.700      0.5200773    
   7220.600      0.5198876    
   7221.500      0.5217482    
   7222.400      0.5228900    
   7223.300      0.5236501    
   7224.200      0.5251620    
   7225.100      0.5247406    
   7226.000      0.5212469    
   7226.900      0.5194774    
   7227.800      0.5198729    
   7228.700      0.5203661    
   7229.600      0.5202019    
   7230.500      0.5197275    
   7231.400      0.5190899    
   7232.300      0.5185247    
   7233.200      0.5197753    
   7234.100      0.5224327    
   7235.000      0.5226488    
   7235.900      0.5220072    
   7236.800      0.5217622    
   7237.700      0.5195189    
   7238.600      0.5144985    
   7239.500      0.5122512    
   7240.400      0.5132313    
   7241.300      0.5150462    
   7242.200      0.5170810    
   7243.100      0.5165952    
   7244.000      0.5142126    
   7244.900      0.5139796    
   7245.800      0.5148258    
   7246.700      0.5145146    
   7247.600      0.5129104    
   7248.500      0.5131703    
   7249.400      0.5153881    
   7250.300      0.5161278    
   7251.200      0.5157664    
   7252.100      0.5159173    
   7253.000      0.5171970    
   7253.900      0.5188291    
   7254.800      0.5182431    
   7255.700      0.5163225    
   7256.600      0.5142827    
   7257.500      0.5138891    
   7258.400      0.5146181    
   7259.300      0.5132347    
   7260.200      0.5120845    
   7261.100      0.5129122    
   7262.000      0.5146863    
   7262.900      0.5156819    
   7263.800      0.5129840    
   7264.700      0.5103343    
   7265.600      0.5096737    
   7266.500      0.5086524    
   7267.400      0.5074099    
   7268.300      0.5059552    
   7269.200      0.5057208    
   7270.100      0.5067970    
   7271.000      0.5094716    
   7271.900      0.5120456    
   7272.800      0.5113777    
   7273.700      0.5101736    
   7274.600      0.5115237    
   7275.500      0.5117084    
   7276.400      0.5093994    
   7277.300      0.5088177    
   7278.200      0.5102466    
   7279.100      0.5108728    
   7280.000      0.5112419    
   7280.900      0.5120856    
   7281.800      0.5124970    
   7282.700      0.5126649    
   7283.600      0.5107012    
   7284.500      0.5079737    
   7285.400      0.5071400    
   7286.300      0.5060861    
   7287.200      0.5045038    
   7288.100      0.5032227    
   7289.000      0.5015975    
   7289.900      0.5000724    
   7290.800      0.4988324    
   7291.700      0.5000364    
   7292.600      0.5008488    
   7293.500      0.4984694    
   7294.400      0.4968290    
   7295.300      0.4957859    
   7296.200      0.4977972    
   7297.100      0.5011156    
   7298.000      0.5027883    
   7298.900      0.5036948    
   7299.800      0.5040468    
   7300.700      0.5057800    
   7301.600      0.5081996    
   7302.500      0.5095865    
   7303.400      0.5110091    
   7304.300      0.5110494    
   7305.200      0.5097575    
   7306.100      0.5082999    
   7307.000      0.5099772    
   7307.900      0.5130104    
   7308.800      0.5138009    
   7309.700      0.5138432    
   7310.600      0.5122663    
   7311.500      0.5095676    
   7312.400      0.5087598    
   7313.300      0.5085571    
   7314.200      0.5089905    
   7315.100      0.5094198    
   7316.000      0.5089785    
   7316.900      0.5100664    
   7317.800      0.5097727    
   7318.700      0.5071234    
   7319.600      0.5051550    
   7320.500      0.5035172    
   7321.400      0.5034220    
   7322.300      0.5033147    
   7323.200      0.5028774    
   7324.100      0.5016442    
   7325.000      0.5003499    
   7325.900      0.5000747    
   7326.800      0.4994775    
   7327.700      0.4992587    
   7328.600      0.4990951    
   7329.500      0.4990215    
   7330.400      0.4991073    
   7331.300      0.4977282    
   7332.200      0.4973181    
   7333.100      0.4988169    
   7334.000      0.5005614    
   7334.900      0.5017164    
   7335.800      0.5018153    
   7336.700      0.5034506    
   7337.600      0.5031571    
   7338.500      0.5018451    
   7339.400      0.5008987    
   7340.300      0.5001329    
   7341.200      0.4994033    
   7342.100      0.4977353    
   7343.000      0.4968397    
   7343.900      0.4969036    
   7344.800      0.4985233    
   7345.700      0.5020654    
   7346.600      0.5032809    
   7347.500      0.5028290    
   7348.400      0.5037954    
   7349.300      0.5023057    
   7350.200      0.5000027    
   7351.100      0.4988100    
   7352.000      0.4967299    
   7352.900      0.4955788    
   7353.800      0.4961840    
   7354.700      0.4986356    
   7355.600      0.4992786    
   7356.500      0.4980923    
   7357.400      0.4966603    
   7358.300      0.4951720    
   7359.200      0.4943678    
   7360.100      0.4948398    
   7361.000      0.4959422    
   7361.900      0.4962290    
   7362.800      0.4966421    
   7363.700      0.4962329    
   7364.600      0.4929160    
   7365.500      0.4895259    
   7366.400      0.4888749    
   7367.300      0.4892276    
   7368.200      0.4909292    
   7369.100      0.4918736    
   7370.000      0.4907623    
   7370.900      0.4908130    
   7371.800      0.4911546    
   7372.700      0.4921436    
   7373.600      0.4920358    
   7374.500      0.4915383    
   7375.400      0.4894461    
   7376.300      0.4869431    
   7377.200      0.4848126    
   7378.100      0.4820364    
   7379.000      0.4804577    
   7379.900      0.4826828    
   7380.800      0.4858505    
   7381.700      0.4871236    
   7382.600      0.4838878    
   7383.500      0.4805584    
   7384.400      0.4805931    
   7385.300      0.4818493    
   7386.200      0.4816343    
   7387.100      0.4789858    
   7388.000      0.4785645    
   7388.900      0.4786080    
   7389.800      0.4779159    
   7390.700      0.4776387    
   7391.600      0.4777037    
   7392.500      0.4782051    
   7393.400      0.4785247    
   7394.300      0.4772453    
   7395.200      0.4768131    
   7396.100      0.4770346    
   7397.000      0.4765376    
   7397.900      0.4759549    
   7398.800      0.4750731    
   7399.700      0.4748384    
   7400.600      0.4762477    
   7401.500      0.4789372    
   7402.400      0.4792863    
   7403.300      0.4774458    
   7404.200      0.4755694    
   7405.100      0.4746858    
   7406.000      0.4747557    
   7406.900      0.4774935    
   7407.800      0.4800580    
   7408.700      0.4805414    
   7409.600      0.4810423    
